,TP9,AF7,AF8,TP10
0,-0.21812601537971837,-0.4372382370638546,-0.7475555459261407,-0.4500188945646908
1,-0.7247904005318344,-0.9968273970799617,-1.5643111795118865,-1.1058721477931244
2,-1.519590550517401,-1.8113388664046934,-2.638078564468754,-2.0531206299675833
3,-2.64341491530542,-2.879179952231359,-3.9140189098524423,-3.2951350370730057
4,-4.082116048262749,-4.1756709741444045,-5.307067282769852,-4.803736771497781
5,-5.772599030542043,-5.665398545415252,-6.716455343593487,-6.521664165766533
6,-7.639971216612399,-7.308122649945799,-8.043403437125647,-8.378155658413316
7,-9.626735511072416,-9.06025347681518,-9.207753772831515,-10.305660322120039
8,-11.68712760173122,-10.882175248737452,-10.16430261163467,-12.250179327766997
9,-13.765538102127834,-12.752166814025935,-10.919392940099135,-14.17847029403569
10,-15.810496184872113,-14.68260421791885,-11.548292320977541,-16.087210289937065
11,-17.79023438695765,-16.668178637516903,-12.113526215733904,-17.95848220080546
12,-19.693070797365635,-18.695047966913947,-12.656792645709057,-19.778150626468086
13,-21.494900380093803,-20.737397788259493,-13.186044959115268,-21.5215744590257
14,-23.142048735129,-22.76008088809345,-13.686450915823272,-23.135614714505678
15,-24.57963863127277,-24.722082510474312,-14.136110078323746,-24.549998582491956
16,-25.78606721712021,-26.576321326428044,-14.51587602363379,-25.703008218155954
17,-26.769350316852858,-28.270459797019722,-14.811238516898182,-26.55393927812722
18,-27.52598140397877,-29.75445800373321,-15.00739373452688,-27.079647150462137
19,-28.020949406275207,-30.9909224544159,-15.086678029810155,-27.271205111171554
20,-28.227144766576206,-31.962084518992278,-15.04113449710714,-27.138263284343004
21,-28.1620207257311,-32.669099189216745,-14.888505598131454,-26.71559738166463
22,-27.878840218087955,-33.12493635596094,-14.670581481721422,-26.061693282114685
23,-27.42400414037943,-33.35085665365403,-14.440868161407359,-25.2393889977159
24,-26.80680303309656,-33.37554508944296,-14.254303800531254,-24.295889993520774
25,-26.015406515148488,-33.23104411844162,-14.161601151516857,-23.26178704867915
26,-25.05544337019177,-32.9493855026309,-14.202402573820548,-22.15876021991882
27,-23.96319485191096,-32.55857260925863,-14.39605539915427,-21.004075635549366
28,-22.775990581712993,-32.07727047142498,-14.743951424744628,-19.80825199117925
29,-21.515078932136174,-31.514716739595663,-15.241646087887847,-18.56760356585179
30,-20.200286741817106,-30.87357209576403,-15.881996005457212,-17.273010147575917
31,-18.862145588610357,-30.150112844616892,-16.650648353691412,-15.940813584229799
32,-17.529461211185613,-29.336456112118775,-17.522461139968787,-14.62674243130509
33,-16.201951717390624,-28.43327025508116,-18.45985856507974,-13.403521031868683
34,-14.852187578928381,-27.464166819086692,-19.42347925374417,-12.323690559161955
35,-13.455232828025729,-26.471803298734397,-20.388372407146775,-11.398643625278666
36,-12.009667194110136,-25.499853136386267,-21.34555489413588,-10.617295280636995
37,-10.527826701695398,-24.58016022785371,-22.291933767518334,-9.974468558928532
38,-9.017865122789559,-23.72840591647163,-23.225395936189273,-9.476270610072607
39,-7.471534994400175,-22.94336136076386,-24.14827628429585,-9.132117597801688
40,-5.848732442770879,-22.21001607672877,-25.07084294423479,-8.949362906399594
41,-4.114986827776911,-21.502183032138742,-26.014557802773705,-8.946252687734946
42,-2.2952430160494828,-20.782126408879027,-27.015487420691507,-9.166335046898284
43,-0.4686751113398833,-20.00088696747299,-28.122106436282692,-9.66862804121684
44,1.2678329308982812,-19.10618841019112,-29.385698460782493,-10.508474883484414
45,2.8303097119951675,-18.0568453271301,-30.846897014446455,-11.723864131700374
46,4.141428523999211,-16.83111133293268,-32.52425741263071,-13.329447873704716
47,5.107346777633296,-15.42925993010393,-34.41505521345176,-15.313306846884696
48,5.616239924451488,-13.874737079342395,-36.506264141766586,-17.62876764452542
49,5.571035364398681,-12.206305993149408,-38.783929083763574,-20.193457383110427
50,4.940427632318642,-10.463180818485903,-41.239677233686635,-22.90509810030523
51,3.7687020503613686,-8.67623973792422,-43.868824187579996,-25.67467497480086
52,2.1395500600754995,-6.870603851957021,-46.66355836326845,-28.450449032300284
53,0.14905542830230994,-5.069807476957145,-49.6149247473199,-31.19759148842954
54,-2.0867537846775517,-3.290025803624232,-52.711509047782535,-33.8603836604783
55,-4.417811393443411,-1.5332475730194972,-55.927484376622566,-36.354193287300916
56,-6.681428219587746,0.20910447115737724,-59.218219951950175,-38.58810257724414
57,-8.755442508882744,1.9487833918485788,-62.52920726383444,-40.48620780060331
58,-10.571269737638358,3.6964430704093494,-65.79935202364568,-41.98989767661655
59,-12.064527392734135,5.456112925789751,-68.95606936903405,-43.05263456137422
60,-13.163212990258353,7.2187626679742625,-71.920153385286,-43.64457638040551
61,-13.821596313023404,8.962538910465284,-74.61794102313083,-43.7608124193849
62,-14.042749335933076,10.659833171545257,-76.98741854588243,-43.42273548353022
63,-13.879914047353404,12.28053289177595,-78.97798480124774,-42.67897970235055
64,-13.401718418577307,13.79396504588875,-80.55249079060094,-41.59214862033522
65,-12.663529478252373,15.174305015873509,-81.68880592141913,-40.21555973612186
66,-11.713018970492037,16.399779010874312,-82.37741336055066,-38.58670575158235
67,-10.614133408624106,17.44697994129739,-82.6209889542526,-36.733616244872806
68,-9.455160686236097,18.2947639612955,-82.43480682871794,-34.682040782178255
69,-8.306305182596315,18.93451955714326,-81.8438120504112,-32.45302854466453
70,-7.185093955738081,19.368493533185198,-80.87500658929243,-30.063456808956705
71,-6.070677676738276,19.59846372184146,-79.54917107716062,-27.539205241960165
72,-4.945320645102328,19.617880861574044,-77.87978372870468,-24.92235541470997
73,-3.8228833726787235,19.41813073777803,-75.87738787467353,-22.267904375876096
74,-2.7318981453904216,19.0020267584476,-73.54307636936899,-19.633315566633506
75,-1.6865992987541385,18.384933898392415,-70.86913877992424,-17.069798457258734
76,-0.6743906084868456,17.58831267544073,-67.86081152621098,-14.614928920182628
77,0.31980259891186624,16.636522042468613,-64.53772977148246,-12.28473133960764
78,1.2762901105114643,15.554878638451056,-60.917236429199484,-10.075912872944146
79,2.1552667942080084,14.367990942389488,-57.00743111381599,-7.971326918929106
80,2.9446066456539146,13.101318840708913,-52.80554108382497,-5.9369438194925355
81,3.6754450816522386,11.783935919834427,-48.29799267424404,-3.925518085523954
82,4.383315805789371,10.445942775659473,-43.465825790838615,-1.901478651200502
83,5.067725239538083,9.114952153934532,-38.29376752458185,0.1448680371753922
84,5.699067932258287,7.815328539057743,-32.775471851499965,2.207001143504964
85,6.2570001704392135,6.564512944737458,-26.91720433881592,4.268929321146423
86,6.745909510050216,5.367802707106522,-20.748728084256047,6.304591641791467
87,7.1639903116186385,4.223729058939607,-14.326178731172552,8.27847847652039
88,7.476079705025844,3.1334811635752384,-7.7198682444399145,10.148803880247161
89,7.622206266181751,2.096403810096831,-1.0118898015986635,11.872915271538904
90,7.560922936250854,1.1054117765546119,5.702456446039991,13.41708798021774
91,7.298184635297342,0.15140291841140685,12.319294506795448,14.767400145389724
92,6.861040120365467,-0.7710758923403978,18.730075550731343,15.932499146014141
93,6.271373878337998,-1.6597901173033087,24.834179238277745,16.929485695049692
94,5.549780315751527,-2.5049024541628775,30.545701273250415,17.761141459898365
95,4.741780980591805,-3.288245231199291,35.78606396912515,18.420457967844623
96,3.9260073122262145,-3.9832321916144138,40.48653642211584,18.917189613294852
97,3.164226126276984,-4.56330905495294,44.59451320868633,19.276020102590724
98,2.4615881860808373,-5.01227839517955,48.07437412249945,19.513121192107363
99,1.7889569421238836,-5.328401875168901,50.910823150004724,19.631533308651782
100,1.125008985078133,-5.523831585573803,53.112494053056885,19.63392184428108
101,0.4695203445645111,-5.62094701647539,54.711671328617044,19.529128948688765
102,-0.16920990873806338,-5.649611838614928,55.758554818461526,19.328764139384862
103,-0.7937515679608956,-5.645475769455538,56.31032813673528,19.03725911328768
104,-1.4308576334357335,-5.6452500528631075,56.4229667543439,18.639386887646012
105,-2.1001461262060337,-5.677071664078764,56.14534040994872,18.112146224103252
106,-2.7756259675991997,-5.7501990802843235,55.5197106736948,17.453821377513933
107,-3.4021641345600324,-5.857268649614119,54.59175022834423,16.689314690845382
108,-3.943506276368196,-5.992134691269487,53.40894413717693,15.854934285377293
109,-4.4050983663837755,-6.160308697290092,52.01360862720305,14.98597824565549
110,-4.804578535991273,-6.369842585739905,50.44484779844832,14.117963431279579
111,-5.13868492891311,-6.625429898378649,48.738263440215334,13.295888273944772
112,-5.384331592237174,-6.93330636487336,46.91771106452475,12.566184243132307
113,-5.528520010947229,-7.301746369370589,44.995701400124865,11.95079274971284
114,-5.588387919932141,-7.7317757046082285,42.98695571612417,11.444073406312649
115,-5.584517982938995,-8.207631885604489,40.91880429899273,11.03547291835027
116,-5.518126026679935,-8.698334033045278,38.834647371382026,10.717189724559946
117,-5.377631084886467,-9.165232563983713,36.78861105306727,10.480398367418328
118,-5.169193686742033,-9.585212874958323,34.853042237994224,10.307134043740778
119,-4.910899187899983,-9.90720013083612,33.03013999876634,10.168220039370734
120,-4.627041146764668,-10.10114989386632,31.349312785584015,10.048868934760321
121,-4.326573473280504,-10.159110046803116,29.847582397691205,9.953381896081448
122,-4.010820623932465,-10.095652396530689,28.551707176703257,9.89186115876022
123,-3.7022795960806882,-9.945140858570197,27.472135762518942,9.859022361236795
124,-3.4386323765690343,-9.752414333639983,26.607919271659544,9.83668678673664
125,-3.2393144207212434,-9.558547145247706,25.948708922462213,9.812893094698975
126,-3.0942258793666917,-9.39005762971144,25.474980813786534,9.78671037525873
127,-2.9813182847436734,-9.259173877779128,25.16001292486281,9.762016101546669
128,-0.14506788673635124,-0.4151846133825537,-0.38185709041193217,-0.2674014751707526
129,-0.5554199618247908,-0.8634665630202749,-0.8547206819201973,-0.7487138280223253
130,-1.181286775517576,-1.4882332017238558,-1.5437707637042002,-1.4701583066170087
131,-2.0568211862532575,-2.289317690724147,-2.461170057908517,-2.448536406937244
132,-3.169608297840452,-3.246289328765327,-3.5985050728264065,-3.6700964149569586
133,-4.456977350645741,-4.322249580745479,-4.927039060497293,-5.089018394080951
134,-5.8388193624317,-5.4764112074372875,-6.401213377208029,-6.638124579368082
135,-7.252946826086762,-6.673189680412029,-7.962754869569953,-8.239273353083924
136,-8.657860029314678,-7.890154023158503,-9.55018853991594,-9.812890262860275
137,-10.013737182706464,-9.128012724959136,-11.115285838819249,-11.291727810693892
138,-11.288689750119687,-10.420045690809609,-12.642590778564792,-12.637389275452945
139,-12.477758687433585,-11.782155680339471,-14.111369774128713,-13.825546282629377
140,-13.603894794672142,-13.220059965743818,-15.507647697367432,-14.861188539713552
141,-14.687759431481584,-14.725456398253346,-16.825306081649934,-15.767565092213223
142,-15.723647307080817,-16.277435869855896,-18.069051980949098,-16.574649751202003
143,-16.697325624354335,-17.848310182904076,-19.250708845620707,-17.31706663560774
144,-17.61271187327046,-19.407960510463955,-20.381756176459604,-18.02950260520003
145,-18.49727456094086,-20.921784464903382,-21.47105251115132,-18.73982080819057
146,-19.3686536662958,-22.347559826457907,-22.52267574936797,-19.463356167913727
147,-20.202496912097978,-23.64511938065873,-23.531391104571135,-20.195110674943216
148,-20.946900461225898,-24.795298768270765,-24.483469430146457,-20.90969788559998
149,-21.565500187904902,-25.80867565633778,-25.36118532870454,-21.575678218780176
150,-22.06050962739669,-26.714868937242635,-26.14643759341936,-22.16533936535745
151,-22.439411114016046,-27.541390078096146,-26.824887338434294,-22.657329053595067
152,-22.682557540376127,-28.30214271791264,-27.390111184336757,-23.037184297015475
153,-22.758308453737648,-28.999002730789364,-27.84335949104053,-23.29356544175922
154,-22.663396823562593,-29.625251161361202,-28.188527822965163,-23.42164959513603
155,-22.44002481430663,-30.166831950420338,-28.428904835531146,-23.430292097948072
156,-22.143574414264055,-30.604544108292426,-28.566702290786985,-23.33695849990506
157,-21.80133489004711,-30.917734297980115,-28.603134972557857,-23.152096091377587
158,-21.402709068267928,-31.087263164106503,-28.54079511203351,-22.874081207535955
159,-20.937542878245456,-31.097183302004044,-28.386741564001195,-22.50512555976155
160,-20.425133973084222,-30.935238583556718,-28.15141534992367,-22.065848993080767
161,-19.892554065263727,-30.596653774968782,-27.845523619451168,-21.592755338205944
162,-19.346779865251243,-30.091950700188313,-27.479268697666985,-21.122433900132172
163,-18.767392249324672,-29.449357075620412,-27.061632466740893,-20.669650085243088
164,-18.13907044389247,-28.704828837335622,-26.599923447282293,-20.22114367342849
165,-17.481045442980975,-27.88531441846886,-26.099968317939716,-19.75034661669509
166,-16.826819930897056,-27.004207762158458,-25.565188777024158,-19.232248248777893
167,-16.186732038611222,-26.070724869816946,-24.99977147551001,-18.646238627687506
168,-15.537429203854199,-25.095254439602254,-24.413929465653137,-17.97534322054476
169,-14.85641808211012,-24.087674653789154,-23.825499928068574,-17.213179251962046
170,-14.150965637235002,-23.056930468138006,-23.259164813020487,-16.38196387828086
171,-13.454103029120457,-22.013084550343358,-22.743389251940485,-15.543516453448843
172,-12.799340678865818,-20.96903669141692,-22.306346869759988,-14.77405303691693
173,-12.198608272850114,-19.94094425352676,-21.969414194862907,-14.130124876451314
174,-11.660054820130364,-18.945317801796666,-21.74004190746383,-13.645996251232475
175,-11.212582360373608,-17.997081319615674,-21.608712884114862,-13.342280098355618
176,-10.901630705773954,-17.110246135835414,-21.549905222477463,-13.21817625912762
177,-10.748934077249768,-16.294459795829844,-21.526647134105545,-13.238136091725952
178,-10.72429836612737,-15.55153380085632,-21.499147454186243,-13.340292656854642
179,-10.772417582779038,-14.878199420643886,-21.43513181805988,-13.461793219649303
180,-10.84952250470642,-14.266778387045047,-21.316008178940773,-13.55532628964085
181,-10.934806074929549,-13.701964453769548,-21.13757753891399,-13.590395562235388
182,-11.003857254158712,-13.164205199257452,-20.90574560938383,-13.543834452619123
183,-11.012149014837021,-12.638088023006468,-20.630797895612144,-13.394989680761364
184,-10.92360136374768,-12.118273539415377,-20.323245144934877,-13.134177876163346
185,-10.740142911550885,-11.611318272761038,-19.989898084776364,-12.775236015462886
186,-10.502361900695004,-11.13177310014064,-19.63365516415014,-12.35389356980751
187,-10.25185901537138,-10.695262887382276,-19.255758540186363,-11.907245809471027
188,-9.998003806018453,-10.312923361404255,-18.854916018747137,-11.451538266159243
189,-9.7292046942207,-9.991385169994606,-18.427183236876957,-10.981598812030953
190,-9.447225375523317,-9.738344028911229,-17.970457806708907,-10.495561665618524
191,-9.177656527873383,-9.56413651579364,-17.487548059925683,-10.00321398473185
192,-8.941741812573122,-9.477869056078935,-16.98309119918403,-9.506629858288672
193,-8.731327255636794,-9.483274917633699,-16.45945937096599,-8.991530131153247
194,-8.511668014759504,-9.57667126808766,-15.914851884422507,-8.433064906744208
195,-8.260240193561692,-9.747222841322968,-15.341592926674576,-7.805186838090723
196,-7.992738134214055,-9.976119021966477,-14.724399493474477,-7.096181650922721
197,-7.739574533753655,-10.238205251541896,-14.04199371959011,-6.318293651214549
198,-7.5158038713196635,-10.508821322135043,-13.274219793106997,-5.50461603308306
199,-7.305960027390507,-10.764055382800805,-12.408655956142045,-4.6970403636184015
200,-7.08906334810147,-10.975987472587228,-11.443156931727072,-3.932116790765963
201,-6.866924637797387,-11.116964683476532,-10.384827138442104,-3.2339484115126824
202,-6.651090823333507,-11.166514919939239,-9.248384479287141,-2.6105755172703975
203,-6.439817919006478,-11.112697276682022,-8.05647787543882,-2.0545233698304717
204,-6.207112149862778,-10.950446892104866,-6.839782484041951,-1.5515502358097382
205,-5.9305591502334,-10.67851398370241,-5.636145930653966,-1.0886563617455125
206,-5.621524130352569,-10.29765314800652,-4.485672040041814,-0.6603767672176148
207,-5.314079653150187,-9.809757016167373,-3.4210850038203544,-0.2716533384647631
208,-5.036113763539218,-9.220466382093605,-2.463975405540449,0.06783334275928087
209,-4.79089176981176,-8.54846546833099,-1.6302600014079005,0.34423848167402754
210,-4.572349375409883,-7.822873179220377,-0.9340801504072576,0.5328547902576437
211,-4.392050813210853,-7.067815787319526,-0.38675627651998634,0.5991555509142904
212,-4.280694351059718,-6.296232102618826,0.005242383618700788,0.516415694053783
213,-4.249179103433021,-5.512918517402229,0.24225434419403494,0.2889599454406631
214,-4.260638876992424,-4.722605556980099,0.32932396098174754,-0.04974542525494646
215,-4.262028474278489,-3.9376233926959774,0.2712654202191252,-0.45975546214740526
216,-4.225820857161789,-3.1752063112049242,0.07283846747597014,-0.9075437069687268
217,-4.15217647759546,-2.449186434523694,-0.2593896970000388,-1.3694825508182766
218,-4.032620830338505,-1.7672303035909578,-0.7182963574751757,-1.832043426560499
219,-3.8362719879811036,-1.1337513126072822,-1.2946890210962854,-2.284732879844046
220,-3.535137357712362,-0.5538695452475842,-1.9693617963527574,-2.7132519905723096
221,-3.1289385547561452,-0.035529294416460896,-2.704522563416121,-3.104471193839204
222,-2.6494695465645544,0.41158435946244964,-3.4433698582420806,-3.4561958301231632
223,-2.1281702947841104,0.7792881903094095,-4.119178364662409,-3.771924183129729
224,-1.569870787471422,1.064677259560287,-4.668443399795792,-4.0432354489677556
225,-0.9579056647029205,1.2722342562829125,-5.040696875501363,-4.243012309782919
226,-0.28049036561706386,1.4146190637894829,-5.20306017528253,-4.337986188143549
227,0.4445051690287025,1.5082989859724554,-5.144156133120775,-4.304970195742321
228,1.1929474387566539,1.5630348555101723,-4.877654238163753,-4.136105612654116
229,1.9644398922000768,1.5808170336999552,-4.443054321109209,-3.8373909707605702
230,2.768970383833204,1.5651513512485546,-3.9007752610898194,-3.4297507088926964
231,3.592356841536145,1.5262966480400095,-3.3198685637901137,-2.94420655408596
232,4.3884405026959605,1.4783100634061699,-2.7636887704727666,-2.4088356640682544
233,5.111625835489259,1.4296574218247462,-2.2807317549720296,-1.8450212525615395
234,5.745543559873812,1.3790661703560134,-1.8996488772563245,-1.2707532876637817
235,6.309186413199824,1.3216182694137462,-1.6252802318901625,-0.6986028351548316
236,6.829192348357637,1.2543810557552577,-1.439962546083993,-0.13822640026312585
237,7.304748777972167,1.1767881491030434,-1.313413648083628,0.39363686311469165
238,7.718562674420644,1.0913051442479285,-1.2140275979538917,0.877667971512752
239,8.06731784324539,1.000790828663048,-1.1155110789416003,1.3080264241721287
240,8.366511291623885,0.9022595845114189,-0.9997896504634064,1.6929253197556733
241,8.619652206426359,0.787438552640817,-0.856343271528031,2.042112950469526
242,8.791091952372579,0.6485805579312779,-0.6815725129086618,2.361927263509306
243,8.82936429615136,0.4844076815326995,-0.4772362674589603,2.660929149010836
244,8.723125714517959,0.3027760983706091,-0.24361430012842386,2.9618382744267477
245,8.521310021345833,0.12030968938303452,0.027686193241248852,3.3049804834358807
246,8.315260709377661,-0.06229798289616919,0.268544259589502,3.7241870496576843
247,8.08475282807951,-0.18137010441800247,0.653937428119399,4.241991078204515
248,7.829708595713249,-0.20180776962745856,1.270824496133291,4.848512238907991
249,7.574285531037429,-0.11219057062833226,2.136680039178899,5.513272156227063
250,7.350529942395903,0.08363290927614825,3.218275702137764,6.194273963502491
251,7.1707991804726925,0.3694595794655698,4.44738042264421,6.844902633661157
252,7.017785344161134,0.7147767430516923,5.733481639293517,7.419462382990742
253,6.866606991469346,1.0789780791207464,6.97748262552281,7.881685261508954
254,6.717231865658003,1.419844166338497,8.085356702021786,8.215512370451467
255,6.5892339749240625,1.6997147154512806,8.980435097973979,8.425529130899056
256,-0.031650276726160664,-0.5684885823692961,-0.12485742346415674,-0.30583633911131636
257,-0.34812081917146137,-1.326538807684775,-0.3057396859630651,-0.8065849556856781
258,-0.8431306614539472,-2.466751042038286,-0.583310461059042,-1.5331655586447739
259,-1.5563179018282145,-4.012680153548887,-0.9703641445882462,-2.4896789867157243
260,-2.5074534321532123,-5.9518437242276265,-1.4686806944762152,-3.66058774155478
261,-3.68546675836607,-8.242806279214728,-2.0666315787754788,-5.006166650105564
262,-5.062503027656058,-10.817126677483198,-2.7434035164487223,-6.468962696814951
263,-6.612155553320104,-13.585975503641853,-3.466621646555387,-7.989617927756836
264,-8.305284069701264,-16.442976700743667,-4.1818152689215555,-9.514879660455076
265,-10.096026326405973,-19.254363527092647,-4.822354682057265,-11.00824605079026
266,-11.928169825006538,-21.908938362909378,-5.337166396259021,-12.47255294986599
267,-13.75799681434317,-24.322522638173396,-5.685556922192105,-13.91838401941784
268,-15.548292371916625,-26.489130855015876,-5.838651317538143,-15.353724865285486
269,-17.229309205336175,-28.456738916010657,-5.778072043611129,-16.764282485154236
270,-18.692922536640545,-30.30341078723575,-5.497829568989523,-18.108149591424976
271,-19.820719345114227,-32.10238552546613,-5.002613764309859,-19.316412519185544
272,-20.533129917315726,-33.871588380878165,-4.306176400039428,-20.316252814275003
273,-20.834023261200795,-35.5739095841747,-3.439611640172727,-21.072508620008456
274,-20.785951330109217,-37.162250993391126,-2.4628105287993156,-21.594638362054734
275,-20.454691020293392,-38.59867618257915,-1.4549027825130203,-21.916907073659132
276,-19.883023160093376,-39.845466069959784,-0.49397582252377875,-22.072812490912522
277,-19.09305682778225,-40.871119668045125,0.3591114728553511,-22.056855054720895
278,-18.099316901780576,-41.66850785547613,1.0827848489757312,-21.836416468311082
279,-16.926306155523147,-42.253028296705445,1.6965731273773341,-21.409724310916122
280,-15.601111621335804,-42.64739649252871,2.231416156909232,-20.807427482268483
281,-14.125335301214772,-42.871930453373096,2.717746366498723,-20.048530406019143
282,-12.476219993541632,-42.94014048652616,3.2123550436673236,-19.11531695779365
283,-10.624848121551189,-42.860565329795,3.814755834319252,-17.95570381597006
284,-8.549093189882223,-42.63860503997989,4.639653934098278,-16.505902733339514
285,-6.2532588232053685,-42.24633196790455,5.792140044437971,-14.734050602967374
286,-3.8030948363071837,-41.588328077021295,7.360777465523151,-12.694930830853608
287,-1.3471802409572877,-40.51208783741075,9.410090675328105,-10.542689170112082
288,0.9082616843410871,-38.8455181693717,11.98715169836476,-8.478394526219125
289,2.7638612083650753,-36.45722741052233,15.13541015762829,-6.680889216720752
290,4.104596460942441,-33.29140118392777,18.892876661592616,-5.255377823721414
291,4.924588501906035,-29.329483823685543,23.284009877453816,-4.220999964398891
292,5.2910917591177355,-24.55767942842606,28.325864106589194,-3.5284666461738583
293,5.319903957502406,-18.990180801952295,34.02598304161321,-3.069585914500134
294,5.166100314365258,-12.692572611451745,40.368044636911385,-2.6950217882695107
295,5.030227363013091,-5.757466391043502,47.30980531176844,-2.2241290092115857
296,5.171867933093603,1.711627637286341,54.795562805430535,-1.4272392070811055
297,5.855690566138994,9.579662386448993,62.79425728711081,-0.06980739006652015
298,7.2474878180949345,17.689938760570676,71.32054554215779,1.98730694965085
299,9.373070089689202,25.91633990714162,80.4103131151208,4.7530053205431635
300,12.158241262889149,34.220599544140306,90.11398039218581,8.14011201459125
301,15.481755770843355,42.68228824407304,100.51161691248409,12.006651343063865
302,19.20581265945306,51.43498486687593,111.69393173918856,16.194558326401012
303,23.192310464871692,60.543110877103075,123.71740085026416,20.572920789947773
304,27.31048591900418,69.98515935467233,136.58291806728639,25.052877340687516
305,31.440824597979997,79.70360555788044,150.22567323951014,29.550979765783957
306,35.486001121556406,89.60415640723309,164.50228028479438,33.972486481363944
307,39.37749137315512,99.55538191081845,179.2018980543826,38.244587754285384
308,43.05699411629755,109.38665345819953,194.06625702866214,42.32066612365108
309,46.453750517870255,118.86543140520973,208.78956417325114,46.143108644989574
310,49.48973566577176,127.71848768168175,223.02207290195167,49.62672617463322
311,52.10572126526999,135.69308860879275,236.41168687373448,52.67896149976146
312,54.276795902355175,142.57712441182625,248.64624805267889,55.22606926240142
313,55.991662296980984,148.1807786013159,259.4646327025041,57.21581096340495
314,57.238184752979876,152.35122953285486,268.66017430260706,58.60721158775179
315,58.0193496862934,154.99337975270063,276.07905579681716,59.37487218735035
316,58.36022854392918,156.06163975422965,281.62272586439565,59.520652612058264
317,58.30298894575904,155.55463905536232,285.252064760584,59.072261045768336
318,57.88026970401177,153.52040132197288,286.9754384301464,58.074554873077034
319,57.08713626365541,150.0620466537492,286.84023489491886,56.582537019403176
320,55.89447914073327,145.32921948551802,284.9302530769814,54.65354418047661
321,54.28568661531575,139.48708842958945,281.3501941574297,52.34456166048265
322,52.28444911104775,132.69501428569046,276.20616507124396,49.71243059288409
323,49.92723482773509,125.11273046982974,269.59660516827887,46.80759846427181
324,47.21956158331559,116.89138374556248,261.617960546515,43.665470463569356
325,44.15177534501691,108.14404114595112,252.37867091872977,40.31221903160127
326,40.746092513473805,98.9386923586276,242.00678055534812,36.785451647167186
327,37.07112621465994,89.30341250621399,230.65581579360375,33.13970189884205
328,33.20917453766792,79.22363342394907,218.50442268275305,29.432535553618063
329,29.221278116151527,68.65525784465167,205.72651602263005,25.711641503555246
330,25.138106458752212,57.56261052232973,192.45819602561275,22.008591139635598
331,20.98151878745251,45.95371148166258,178.79448187313272,18.343399513863588
332,16.7868831786429,33.884021724953016,164.7901716240848,14.731420492920158
333,12.587130990864168,21.435986063176845,150.45418864766245,11.17750413206743
334,8.382664039124718,8.697338801825888,135.75481446838035,7.670458948901805
335,4.142087253414023,-4.246879606918593,120.63343361713434,4.1879741051331
336,-0.15463246289940202,-17.304299651935718,105.01610020237617,0.7008869790525201
337,-4.4908964781704865,-30.35363167104289,88.8240593580226,-2.8173358723455033
338,-8.834965532531061,-43.230439604175025,71.99093545398479,-6.3743996841513955
339,-13.168251419281063,-55.74677142007473,54.47777074749237,-9.955517116102799
340,-17.489764920146865,-67.72863879644129,36.272014502696614,-13.531646186999488
341,-21.77940800490946,-79.0321060658001,17.37767944139522,-17.06917074465294
342,-25.980044217905526,-89.54081152494048,-2.18899170883953,-20.532732586962325
343,-30.026949169408528,-99.17928247021817,-22.392053471991595,-23.88666798022939
344,-33.87795342852149,-107.92424267518722,-43.166012151829285,-27.109437494893744
345,-37.52454391807289,-115.78223338841885,-64.4190282282062,-30.20428035854994
346,-40.974280398519454,-122.76185589884378,-86.03295795890998,-33.18942367239378
347,-44.22741707198142,-128.86275469757246,-107.8590459049736,-36.083167522574804
348,-47.27410696199381,-134.0747994680327,-129.73723279586878,-38.90600549189791
349,-50.12175715830594,-138.37362584938825,-151.50890285994836,-41.69375011799249
350,-52.81455222136812,-141.70324608656784,-173.0081710594186,-44.493124749645446
351,-55.400662006235784,-143.95856219918318,-194.07413667649786,-47.338585105520764
352,-57.89563122778804,-144.99958015746898,-214.57621019374503,-50.23431224698551
353,-60.28151078322876,-144.7099579557373,-234.42229466907463,-53.14981336246574
354,-62.53930080197345,-143.06848478415583,-253.5508932980261,-56.03486271440563
355,-64.67454091236661,-140.19487972938688,-271.9155675529279,-58.84957908406118
356,-66.70144777374657,-136.34553513459585,-289.4690507038829,-61.56941441120804
357,-68.61094519870244,-131.86665029858344,-306.15515433877044,-64.1597118548586
358,-70.35628956254916,-127.1388833497028,-321.9070967106481,-66.56318768167931
359,-71.89151500925988,-122.52598225520416,-336.64793794648733,-68.71876340278553
360,-73.21323232760165,-118.32895962198464,-350.2940061500996,-70.59103771793696
361,-74.34795991863416,-114.75601273704534,-362.7535459398019,-72.17757387697941
362,-75.31801493334835,-111.92115421132021,-373.9191446202209,-73.49567747279244
363,-76.12669218630434,-109.8596631633052,-383.6683918197912,-74.57141563390037
364,-76.78205977186985,-108.53784595564314,-391.87962348007835,-75.43225778530771
365,-77.32195282648706,-107.86349848450723,-398.4492258409876,-76.10315828194328
366,-77.80620803696644,-107.70871390498645,-403.3066886135703,-76.60666437524463
367,-78.276438352022,-107.9467668524356,-406.4296242346802,-76.962714215651
368,-78.72140323394538,-108.48819938528065,-407.83794132890216,-77.185383632227
369,-79.10726735192017,-109.28883965554874,-407.5785758439504,-77.28518613149629
370,-79.42540610500814,-110.32059735980319,-405.7281598941527,-77.27593582545498
371,-79.68896211003158,-111.5367725077404,-402.4064396327879,-77.16830255615783
372,-79.89482447636094,-112.85667536017348,-397.7877748281751,-76.95719880065974
373,-80.0048824397368,-114.16400868177334,-392.09492317743576,-76.62615353389586
374,-80.06120635550333,-115.44048344445267,-385.9203442605159,-76.27041465185755
375,-79.87032220882709,-116.36024388008843,-378.9286126477842,-75.74728678005667
376,-79.35589753704343,-116.74009274214644,-371.1440694542753,-75.00651349250897
377,-78.50375138895873,-116.51838861708718,-362.8318749328346,-74.04898759714422
378,-77.34448680970952,-115.7342613235805,-354.3898316511641,-72.90696874985625
379,-75.96284395642753,-114.50856582747593,-346.25723272152345,-71.64100309863504
380,-74.48836049508637,-113.01609306224015,-338.8443698949297,-70.33457771017098
381,-73.06336828771171,-111.44895635866783,-332.48148120073483,-69.08248467107565
382,-71.80079916121083,-109.98633200892795,-327.3872662096669,-67.97469781456063
383,-70.76833071583111,-108.77268286365361,-323.65488792302625,-67.08010591808143
384,-0.6830939944544454,-1.237222415798137,-3.45421964816435,-0.7218243138468065
385,-1.6904055448546202,-2.711523764359927,-7.607329776533762,-1.700411277848648
386,-3.153977767149153,-4.817392277350969,-13.56096337388744,-3.1296167539420825
387,-5.104397542692881,-7.552805207407689,-21.320358472852515,-5.020996981874835
388,-7.517076346818471,-10.853552166378526,-30.71424503548499,-7.338037975978852
389,-10.299315260013795,-14.597076565042151,-41.403202996366296,-9.980367676160743
390,-13.311953716768915,-18.618770412162775,-52.917167374803334,-12.796459518881768
391,-16.40965978441264,-22.73262668088026,-64.71999349475121,-15.619911543334814
392,-19.469747504851057,-26.754029302380573,-76.30081130600298,-18.30487729419365
393,-22.40706037250282,-30.538843943008214,-87.29493710640003,-20.757955632158566
394,-25.19285990113496,-34.04460752164874,-97.6309536439152,-22.970338117158665
395,-27.79093289032125,-37.211505782641545,-107.14846078195579,-24.935331222404365
396,-30.18489766259264,-40.015355841187414,-115.73390130255258,-26.674374451764155
397,-32.36395266766065,-42.45866208388977,-123.32132603749771,-28.227419079961763
398,-34.30677320665663,-44.56178945977797,-129.8845804292033,-29.634273807728892
399,-35.98216710478126,-46.35570795782194,-135.42874771919242,-30.924369482577994
400,-37.386172411250556,-47.867572518878944,-139.98105734383932,-32.11903507048188
401,-38.56254655797535,-49.107375402283466,-143.5775199217517,-33.23198287430751
402,-39.57440100341695,-50.06762960924329,-146.25331191484804,-34.265305239104855
403,-40.46695233181163,-50.7287396461125,-148.04055466266595,-35.203580880504
404,-41.24475285290354,-51.06375112850553,-148.9656127105101,-36.01282388960409
405,-41.90120559763282,-51.048307994199554,-149.0508435855288,-36.65567032645176
406,-42.457673979539585,-50.673736619696946,-148.32689737055185,-37.12143094336769
407,-42.946196396337726,-49.955978310473014,-146.84786799695235,-37.437124341801756
408,-43.370091277787324,-48.94010292374175,-144.69679704226184,-37.64278980288671
409,-43.690559255640316,-47.703682589338754,-141.97734158422682,-37.77098502811951
410,-43.851784920216524,-46.3473025046285,-138.79458401244887,-37.84273389580174
411,-43.81854696481413,-44.96682320810437,-135.2354471637871,-37.86846433019049
412,-43.59755161667839,-43.62785045558107,-131.36343166696736,-37.85514409412675
413,-43.21506911034122,-42.35591993881579,-127.22102089424118,-37.80918486400138
414,-42.676684332253934,-41.14325586698841,-122.83145437164592,-37.73168569734543
415,-41.97298068506428,-39.9620680040891,-118.20615052962259,-37.6128201445328
416,-41.11630168486809,-38.77397976796261,-113.35222491137483,-37.43114570207264
417,-40.14857848477641,-37.537806376917004,-108.27652430820172,-37.16016269612971
418,-39.1007100522832,-36.21605377674567,-102.99130817429834,-36.769425496850914
419,-37.963133575577814,-34.77615923590072,-97.51995558242498,-36.22161163119687
420,-36.71287523620872,-33.19154961804541,-91.90131846944432,-35.483226006579365
421,-35.348068801825114,-31.443481192142247,-86.1886987983031,-34.53938293660632
422,-33.881007188854674,-29.517837679192272,-80.43603416205906,-33.39146317505269
423,-32.29790261093045,-27.40210372763662,-74.6858327579665,-32.0424283818118
424,-30.55422590871744,-25.08920369290996,-68.97455193319813,-30.491626126654225
425,-28.61352763737568,-22.586332122209374,-63.339779136755986,-28.74725295501074
426,-26.476216336885532,-19.915722229774236,-57.820106322829965,-26.84184625267586
427,-24.190990074689896,-17.106073559475554,-52.452218461584394,-24.831151375878704
428,-21.824609666873094,-14.18853490949508,-47.26627077885978,-22.774902859707122
429,-19.418236412486394,-11.198445165739816,-42.28019438030349,-20.714092281540502
430,-16.992825191477408,-8.176921418762014,-37.494833212188276,-18.66571214714206
431,-14.588356181163865,-5.170005022107597,-32.89189499115883,-16.635999580958817
432,-12.273440809556782,-2.2236512783191933,-28.433201909017743,-14.63244567089549
433,-10.100287062349402,0.6210431900181244,-24.069050512858713,-12.663022727664282
434,-8.069383340461048,3.3270458787262323,-19.755996403267094,-10.72898392462589
435,-6.144067901974167,5.8596347688162655,-15.470802594701674,-8.829604223810891
436,-4.296331854679932,8.186233445717154,-11.217944921534972,-6.978490701225767
437,-2.5364068373567448,10.277955219836613,-7.031190246246313,-5.208177494745389
438,-0.9014096522637477,12.112538567480746,-2.967369448030929,-3.558329852546395
439,0.5640862436636419,13.674101552777884,0.9052157780064992,-2.064323906830606
440,1.8265406317567063,14.951567663868282,4.523653846705212,-0.7521295079920369
441,2.859039536403513,15.940043391768844,7.851311155880161,0.36312992320897197
442,3.6245282096967197,16.642927815010545,10.886301632093366,1.2749254919383328
443,4.0885745565586165,17.066021452212965,13.646702255542866,1.983073428095552
444,4.248990305626683,17.20610802040607,16.156715396557818,2.494077291103526
445,4.150032673837148,17.052175706355218,18.448453796750375,2.8214266352054165
446,3.842961112187345,16.596161278164175,20.55805185459142,2.976192111322976
447,3.3498104187940734,15.839205985306222,22.512066945858297,2.954472676173081
448,2.681753013082166,14.796348225062463,24.321075771303622,2.7489081402062245
449,1.8682723135261867,13.500986318743719,25.982591237882506,2.371620215472541
450,0.9678110524919735,12.004350302195618,27.485669369556685,1.8610170862640893
451,0.03807286358873385,10.368600514084529,28.815516033597543,1.2698771166179028
452,-0.8986807531415645,8.659407655930112,29.956704418993827,0.6448725103014301
453,-1.846758084810384,6.942731609137118,30.898038255658548,0.016660557190621372
454,-2.7950173698381113,5.2813430048768755,31.638494772111063,-0.594984818531499
455,-3.694749077718278,3.7301790627003215,32.18427285575778,-1.1700509561023273
456,-4.4836320929464755,2.3380617368995,32.54073816970472,-1.6815540999876912
457,-5.121238266342626,1.1514831019850307,32.7106066896579,-2.1030620811187255
458,-5.6033783601410345,0.20854410240774426,32.698825709603476,-2.4203798598869892
459,-5.931240499602924,-0.4705748033225802,32.516359115654296,-2.6293856276601684
460,-6.0866650612933295,-0.8859788876789185,32.179963464918195,-2.72798296875707
461,-6.047050451270606,-1.0551243473717689,31.7120843633975,-2.7158327183692093
462,-5.808789100510315,-1.0102893296236901,31.140299579872615,-2.5945025006278257
463,-5.400809139951522,-0.794800421856453,30.498147511882408,-2.3634520619383195
464,-4.8500237989389525,-0.451181592594224,29.82923389356707,-2.0209189499732334
465,-4.151313209584839,-0.009487319326665689,29.181920303593895,-1.5697920169202617
466,-3.293427471716732,0.5065260230109534,28.592941175037677,-1.0234127122215935
467,-2.2912588076005265,1.0663326825205863,28.082349180323785,-0.40822386604800553
468,-1.1938380924137475,1.6365764330790147,27.66411244774495,0.24103721325678934
469,-0.05348070162446844,2.193366762495359,27.35254814834539,0.8948947769889912
470,1.106157761288813,2.7219325024594174,27.16058419827787,1.539503142946592
471,2.2824338147293894,3.2079030164792774,27.09608334094507,2.1698388480756217
472,3.4592118456216436,3.633449991440116,27.162129494773637,2.7702045372699566
473,4.5886074037788225,3.975497092575931,27.363284956871126,3.301826607378984
474,5.61660939413592,4.211596831976657,27.71205064309148,3.715439768341265
475,6.518202571116956,4.338353934317539,28.230867617423115,3.980015066580296
476,7.304496818303075,4.379214666637257,28.94626568658095,4.095069983064622
477,7.985969588319002,4.3729369063268955,29.880384907744297,4.077271062970126
478,8.543465442943056,4.3589011597664875,31.04267497660166,3.9464210968418563
479,8.945921651828952,4.365405559667972,32.42313268002133,3.7194428376528323
480,9.179118096133397,4.397862299856095,33.99301233597803,3.4127843333834242
481,9.2554214898227,4.432557401637005,35.71099803832139,3.052507257621477
482,9.182679416515027,4.424441940145201,37.53143012685891,2.670129695603138
483,8.941749239038808,4.3270277615610215,39.41318467163163,2.279384225970419
484,8.508708930064598,4.112484473873752,41.32359019833272,1.8700554726578065
485,7.888526346833957,3.7752517402143515,43.233270499701334,1.4328982719149437
486,7.136215085344005,3.323727445598622,45.112333249809595,0.9745835347768751
487,6.329368614058249,2.7810414895709137,46.93585580453108,0.5079741497523745
488,5.526429411429137,2.1913758907536507,48.68823281390141,0.04449313928948713
489,4.763777611739098,1.6147228311422541,50.3604379516991,-0.39827622931113615
490,4.082957158745577,1.111621430259583,51.949186154858324,-0.781696948730457
491,3.5440991815165543,0.7298781230969071,53.457676319735434,-1.0474550756000975
492,3.197877095460865,0.4941562350013973,54.88867156034513,-1.1421746197977858
493,3.060147464301514,0.4031372701892213,56.24027243938684,-1.0388524541066544
494,3.1143870986351754,0.43838614314616076,57.51080046740862,-0.7371310220512928
495,3.338813234177027,0.570871402549656,58.700702829917695,-0.2520662280608599
496,3.723360958736746,0.7665013499885065,59.812440323622475,0.39347834661558234
497,4.2516279437549125,0.9989432173774403,60.852069789360534,1.1704525273189959
498,4.880846359269607,1.256165768315824,61.827689180508266,2.037221384473937
499,5.539959614802019,1.5329014729051031,62.74445582019744,2.9378718927171383
500,6.166424780996518,1.8224896031518258,63.59967000862426,3.8208440225095566
501,6.737873967397119,2.1164405244824964,64.38282452143488,4.655781153048364
502,7.266498035228599,2.4136733254425264,65.10437585142749,5.432851478092108
503,7.694777962707338,2.683440380120094,65.69288663925192,6.134541878349031
504,7.972438521906188,2.904611104277331,66.10576866084406,6.744028310585651
505,8.092909046150043,3.0649128626863162,66.32840765080141,7.256321317761241
506,8.094271079225352,3.16033505720189,66.3727754296463,7.676471561212195
507,8.024732864095004,3.1946925041450442,66.26992829494908,8.008427284553727
508,7.915088645545728,3.1774403013803343,66.05796106320726,8.251168199960983
509,7.781193938619621,3.1200723428122594,65.7778141514019,8.40657723283879
510,7.643876381508443,3.0358872727638144,65.47520206501132,8.488089752107776
511,7.530988123046461,2.9429869687360024,65.19613884019607,8.518464418346442
512,-0.34911748937685266,-0.6705471178388962,-0.4433970446627537,-0.48029597717437683
513,-0.9201699932547056,-1.4773350538648264,-1.0466119691324605,-1.2302161188420138
514,-1.7243005330991088,-2.6159006402487455,-1.9282508135715635,-2.3387739510274814
515,-2.7708380740749785,-4.0710671934319285,-3.1005752103992217,-3.8138500609306987
516,-4.048164736648947,-5.788576237633822,-4.552994631474334,-5.61938327878798
517,-5.504465871246133,-7.680222405181899,-6.2511561749813005,-7.675788233461713
518,-7.059451527908983,-9.63736126900836,-8.141748201018775,-9.872837064594902
519,-8.641253650526517,-11.547625442107607,-10.1567333546523,-12.088777851003197
520,-10.204996665639843,-13.312924379592989,-12.21943630741634,-14.21472714242768
521,-11.725899279667967,-14.870480144626853,-14.260708978556067,-16.174152690536058
522,-13.188253745425676,-16.21919091239618,-16.244358903358844,-17.937798376925578
523,-14.565857808287504,-17.34687104709431,-18.124417734779325,-19.472664521668616
524,-15.86054575973508,-18.25669182519956,-19.863036649748786,-20.774142296722477
525,-17.089744356348785,-18.96759446606424,-21.428375365351727,-21.860580356838852
526,-18.255114886883774,-19.50934281963965,-22.791690606534218,-22.756198008998656
527,-19.330525111654097,-19.91617030907946,-23.929454341433694,-23.48167674097855
528,-20.287278363721793,-20.224024773061075,-24.831651353840286,-24.056952460675
529,-21.125813520279422,-20.469795010866594,-25.505937833366694,-24.50627140426046
530,-21.87599537863045,-20.6881707142053,-25.972265174969156,-24.86003896325209
531,-22.560886284166948,-20.90219576166616,-26.25478503989024,-25.139383624327976
532,-23.171302034771664,-21.118978112174517,-26.372556042159793,-25.33834940538619
533,-23.684775152345026,-21.338064078560407,-26.334335221301608,-25.436121583714222
534,-24.093617291220085,-21.560643898614128,-26.143050741928736,-25.417031838759105
535,-24.4189397663157,-21.78654368725957,-25.800384892366804,-25.280344419729143
536,-24.681318687524783,-22.006537090594804,-25.31122851047435,-25.0406001888982
537,-24.869508930217332,-22.207516264579166,-24.69118585850586,-24.71671673359076
538,-24.960542663221073,-22.38147504316821,-23.96549200068164,-24.32501749617677
539,-24.951397758433327,-22.530512064887628,-23.1593825013912,-23.88842383670557
540,-24.868428308502104,-22.672362643183632,-22.29777072205683,-23.443536592132066
541,-24.73153625588232,-22.837781583081316,-21.412783758711942,-23.030254670165416
542,-24.52409194716103,-23.057266034823083,-20.54419892083289,-22.681060969473545
543,-24.227477315114953,-23.34915998816969,-19.73425124508573,-22.417125083824978
544,-23.86137727484485,-23.71566105560603,-19.019860227006788,-22.245936685264034
545,-23.467634576325413,-24.143305866477533,-18.42333858065748,-22.161150945685286
546,-23.066168620172572,-24.60554724770311,-17.947421992860352,-22.14284658474525
547,-22.642635241933537,-25.067828989459464,-17.579600673541435,-22.15658467356822
548,-22.17014856399889,-25.4950598887479,-17.302299070881325,-22.163672647173836
549,-21.632840293010553,-25.85596071090121,-17.098886872901605,-22.148047677863726
550,-21.01999127501429,-26.121388316265772,-16.95300224701026,-22.120845960246587
551,-20.30002699163997,-26.266421737481057,-16.844584698079757,-22.09426523080937
552,-19.41562876698314,-26.276714529465668,-16.74836847768482,-22.06300534170466
553,-18.311407660623036,-26.15096262111451,-16.63669369505042,-22.001454216541273
554,-16.974104095931782,-25.903199599062855,-16.48878337771888,-21.88180061736364
555,-15.435481695630596,-25.564782750771265,-16.303812773544717,-21.69642949367543
556,-13.731637915886129,-25.176642353057947,-16.10157689099953,-21.449183610674318
557,-11.872493960483935,-24.773246233396634,-15.907988677452646,-21.12787333793702
558,-9.856463593417985,-24.373763516248044,-15.742090528440981,-20.69383104634738
559,-7.714850718897114,-23.987363321634668,-15.618090913042659,-20.101427404695837
560,-5.52245764498203,-23.618416749029507,-15.553294896993505,-19.325840423813005
561,-3.364975339138073,-23.26065807350256,-15.563548107126996,-18.37165564011382
562,-1.3173317943240201,-22.8908104190279,-15.652796234164557,-17.26612669766521
563,0.5659687256207449,-22.47639502673358,-15.811037184725452,-16.049315762871785
564,2.2509982431493394,-21.99087049389012,-16.01625359203791,-14.763651398046855
565,3.7072447596105578,-21.42166264867374,-16.235902116160865,-13.445032086815024
566,4.8969558472222445,-20.771143247942337,-16.434150659999286,-12.11443875300766
567,5.787773158951307,-20.054972818295482,-16.58382117548897,-10.777483469218971
568,6.379256878604897,-19.298789051951125,-16.67314589977531,-9.438286282310214
569,6.703779665256269,-18.53488604465427,-16.704379746989513,-8.116043003671512
570,6.795436759802537,-17.79994902006272,-16.690787890070972,-6.850172465846102
571,6.662352119946204,-17.12525138233532,-16.652094085669454,-5.6913686867455064
572,6.297537588989581,-16.51822064703073,-16.6033758706513,-4.679382886359052
573,5.7141828426807475,-15.964451321533284,-16.549546133495642,-3.830454498178242
574,4.939552511122137,-15.448723311622203,-16.49463647574662,-3.1565415317704275
575,3.989856322015121,-14.960462644301904,-16.448720023751868,-2.682666588194053
576,2.8771765598859123,-14.486811058055636,-16.415928572251996,-2.4335638030656765
577,1.6334284301392612,-14.009682211826034,-16.380436212951615,-2.410641939436717
578,0.3233244808048661,-13.512077367417353,-16.31106318109533,-2.5845798861385534
579,-0.9751372015654094,-12.98787065102186,-16.176139020755983,-2.9102606769869928
580,-2.2059394100232512,-12.441699075972855,-15.952784974335835,-3.347070265610277
581,-3.3482094734299053,-11.88048995933541,-15.629140921243392,-3.867459467317041
582,-4.388879952561413,-11.309822957028524,-15.206222209067917,-4.4535067796089205
583,-5.301936943019668,-10.737184837005746,-14.693037381302657,-5.085415232108767
584,-6.061095196678182,-10.171446610863466,-14.096339066486834,-5.732014849789592
585,-6.665238751167679,-9.616507524738024,-13.418572013529188,-6.35481514595964
586,-7.14857363429853,-9.0729058685068,-12.660077458445565,-6.921172749423801
587,-7.550143064678294,-8.547515007459461,-11.818440120739067,-7.40822274291764
588,-7.889378009208743,-8.055226075443901,-10.888642951051104,-7.800508934041917
589,-8.174143632319378,-7.613822166075499,-9.868121233661796,-8.092450507955082
590,-8.426667022594186,-7.238210970615058,-8.761797802557924,-8.294226267209908
591,-8.688457296419001,-6.931882558768829,-7.580893266978662,-8.428920091330877
592,-8.98226977462208,-6.683814267442836,-6.3381749762353055,-8.517105959941299
593,-9.28622323120585,-6.475647928964397,-5.048365282022805,-8.569411869338051
594,-9.539992549098923,-6.288624580886197,-3.734161590523648,-8.585908575580374
595,-9.681803834475717,-6.103046996738476,-2.4208570380625596,-8.55932122552255
596,-9.685065048981514,-5.894629195479089,-1.1235008744628128,-8.485036455669693
597,-9.55359921026482,-5.636749201692755,0.15641646534862003,-8.361813756232566
598,-9.294501884567259,-5.308385069902236,1.426282022286973,-8.191126805104128
599,-8.89590046947955,-4.8988744494025624,2.696961949257091,-7.977566151675144
600,-8.355814789888115,-4.405186179469785,3.979347503129138,-7.720879651035817
601,-7.721464742180071,-3.829049848117136,5.276948668792073,-7.418648434525773
602,-7.071758697534681,-3.1834232443917707,6.581002410837081,-7.0745608117666485
603,-6.4749479769455505,-2.4973207806895616,7.872278794184006,-6.692329732667579
604,-5.96459792467544,-1.8020862544107048,9.120621066522085,-6.271725245661085
605,-5.556837290201993,-1.1187373036626498,10.285399511061597,-5.818209371695921
606,-5.2772956931974955,-0.4609461261671772,11.321781403796823,-5.347671144798197
607,-5.161420678099664,0.16227748034368977,12.192455030831761,-4.88215137267891
608,-5.223405203683466,0.7475714445720788,12.879427376078828,-4.441795573753673
609,-5.431294713305281,1.2970399265389354,13.388096593272893,-4.036837837680995
610,-5.7325437529185415,1.8168412381009202,13.74276291520108,-3.6673728976399085
611,-6.096946540477104,2.3150332198754597,13.975831590599787,-3.3361312320879106
612,-6.52746637721294,2.7922283738986686,14.115568664289473,-3.059076839527154
613,-7.0194552495808225,3.231076814276396,14.178750096430043,-2.8508322603375804
614,-7.532492856947308,3.603945413854329,14.173802003116087,-2.7069451868185266
615,-8.019595823349645,3.889384105704705,14.108266016755351,-2.602982297355644
616,-8.463585580244064,4.076642647674188,13.988798811882647,-2.5061110579240977
617,-8.88022299765738,4.160786479316944,13.815311969319943,-2.391160892013711
618,-9.271484001105826,4.144118656080771,13.582637909737235,-2.2425953236338483
619,-9.598099918957026,4.046215113583038,13.291222401575594,-2.0426890381575546
620,-9.807199812035527,3.9092122227494217,12.94983638703682,-1.7751715029641824
621,-9.866944004515819,3.787660666824998,12.570405228230717,-1.4447249876658772
622,-9.786547462849054,3.7313552417754963,12.16941207408776,-1.0808839496306306
623,-9.585758290784158,3.7809215788644797,11.771415029878195,-0.7237318640591971
624,-9.257457900018402,3.970161760111322,11.400820623468915,-0.40840625612252174
625,-8.781478082797042,4.314280389524178,11.067444359887768,-0.15744028889677597
626,-8.158857508274235,4.793348637185128,10.760889642700306,0.01921313901541316
627,-7.424084817410039,5.35803995746123,10.459141243738301,0.12700964461415357
628,-6.607983913876542,5.953204612711243,10.141212169187014,0.1994328126405396
629,-5.699462740937362,6.535931927553825,9.792763166385933,0.30772621434074576
630,-4.686547769357632,7.047098006813052,9.469938626917713,0.4974955968426139
631,-3.513919598501797,7.522643085771945,9.057617699173365,0.918742484338735
632,-2.207069226726965,7.977859326066147,8.499201462376442,1.6235541168423202
633,-0.8199044816031414,8.413884227652048,7.783697353114309,2.5883411791142876
634,0.5907447113592365,8.829091677920095,6.937910331127988,3.741475636724401
635,1.9604037796040272,9.221509432482694,6.01397485265221,4.983065796666941
636,3.2039623166455407,9.586423122567279,5.074901375623953,6.199964474586484
637,4.233952139121841,9.916770764808488,4.185514382423725,7.285581083082691
638,5.002710191493701,10.20547027462779,3.4076898868843726,8.162194405188362
639,5.520440784840779,10.445228302060999,2.791154181916397,8.79434754059506
640,0.044076368345099565,-0.24345710896019346,-0.6878728315698885,-0.02770704262194912
641,-0.17635044207371825,-0.5792619442242952,-1.553801923578964,-0.2132181556478508
642,-0.5594269326696695,-1.0868260554400286,-2.829084153919619,-0.5359455868003413
643,-1.1491972990504689,-1.7800313368550789,-4.542873111251559,-1.0310299266812406
644,-1.9757749258272466,-2.6674529403810228,-6.691671032067593,-1.7296538460591426
645,-3.0306740121578817,-3.755261362526503,-9.241758919099798,-2.6510122878322475
646,-4.273037437867132,-5.041339835222663,-12.131307381106323,-3.798378365245499
647,-5.659524769977779,-6.509656161817032,-15.273415740423397,-5.161342956557787
648,-7.157235672379919,-8.130677576281292,-18.56866498303675,-6.720429106761832
649,-8.735252279871125,-9.868437611367781,-21.92869887013062,-8.449692473474213
650,-10.351814328095793,-11.693272711180985,-25.310543824136115,-10.321943914895437
651,-11.961181429820892,-13.556125608301267,-28.64458317122767,-12.306024838827406
652,-13.539661379102657,-15.401663088491715,-31.8678285107547,-14.368641994283008
653,-15.094265512550713,-17.173599259062396,-34.92603171675842,-16.473439139201385
654,-16.629559189970827,-18.821646830018,-37.7743322374246,-18.58299578835624
655,-18.120188630319277,-20.307599878585368,-40.379046315328935,-20.656115856783416
656,-19.527794250344403,-21.604268268847658,-42.72004948414712,-22.644055767713816
657,-20.831647664117238,-22.69382602007791,-44.78875895731402,-24.499999973803217
658,-22.03737650145181,-23.575290094205084,-46.58016745294487,-26.189532582541982
659,-23.145485246285947,-24.273210932942472,-48.08591863070459,-27.681877210113065
660,-24.130041315347952,-24.827082785486173,-49.294023715220334,-28.94267720100256
661,-24.95527422227734,-25.26471318999382,-50.190734078219585,-29.937297155456623
662,-25.598210177360084,-25.59530498126988,-50.762304025113174,-30.639605595568057
663,-26.06374297480103,-25.824709283767344,-51.0033583836902,-31.045148879393555
664,-26.3591160305538,-25.96427737322454,-50.9237597652818,-31.166460572104707
665,-26.46448936764091,-26.026500150158327,-50.54282247215814,-31.01267923868452
666,-26.34752801640505,-26.01761774591609,-49.88124377072225,-30.581399358711074
667,-25.993116714717157,-25.936441820858473,-48.95959628547755,-29.86997400123918
668,-25.421124698464173,-25.779007911887756,-47.79919156364122,-28.889030637383158
669,-24.663552875893938,-25.543667864860808,-46.4234527879664,-27.666173332127386
670,-23.732359427587895,-25.232016211127437,-44.860258527183554,-26.244101913376998
671,-22.62620756450398,-24.84601797263161,-43.140904600889826,-24.67033860419947
672,-21.364701336835545,-24.3892748685436,-41.29677191948093,-22.987732754630063
673,-20.00435262740646,-23.871697838213965,-39.35962539236194,-21.23987717281796
674,-18.612415050447904,-23.309103266824735,-37.362947734667415,-19.47480093037995
675,-17.237259506353663,-22.71837231603236,-35.34278905769671,-17.738800704147547
676,-15.905223432431452,-22.11559912603287,-33.33885371995465,-16.077701388143264
677,-14.648390798802208,-21.519093497943654,-31.38772057964509,-14.54501564270026
678,-13.523442139965587,-20.951695230699546,-29.511260280509486,-13.196553345658899
679,-12.589480131214504,-20.433742683476837,-27.71209822579084,-12.074760932466882
680,-11.876912417467967,-19.97157431983018,-25.97468648075788,-11.198399312900293
681,-11.380931047695093,-19.558445494549854,-24.27292909723007,-10.566625694375452
682,-11.09638680083101,-19.184789140482756,-22.58346966269865,-10.17321475963829
683,-11.038135941621555,-18.84368054975368,-20.891816125207683,-10.012275390594546
684,-11.211714139761938,-18.52926885867186,-19.190397164677478,-10.073154040503654
685,-11.580160699157496,-18.23270203239908,-17.47798236978818,-10.32809251145173
686,-12.061559322313986,-17.943348128359,-15.763014756458274,-10.725086346063675
687,-12.569512018096729,-17.656100330776134,-14.062509592737968,-11.200707653783624
688,-13.048279240182179,-17.375115591136947,-12.394202253149095,-11.699407724726337
689,-13.467845505222842,-17.110306901625645,-10.775082136400506,-12.18448510789641
690,-13.802009606672659,-16.87160905566266,-9.224846336117936,-12.632242922880094
691,-14.020605847422468,-16.663522995286225,-7.762209318514558,-13.014915398552237
692,-14.106960215078452,-16.481085340559982,-6.399658103871703,-13.296166882683936
693,-14.077816437864412,-16.307858900884877,-5.145247560543441,-13.443821598405707
694,-13.986287755084367,-16.11685265639308,-4.009377753417157,-13.445485228942072
695,-13.880303491365648,-15.877611827864362,-3.006730932441124,-13.306778859838147
696,-13.759347567392203,-15.564171218906434,-2.1449322700308175,-13.038337713887438
697,-13.58861494791491,-15.157699899323257,-1.414110425852331,-12.648813483005023
698,-13.332590123909574,-14.649179744803952,-0.7892758576943074,-12.146931206591125
699,-12.974471852531636,-14.044172219367749,-0.24156735732055595,-11.551932479044876
700,-12.499107039603002,-13.362389413812453,0.24772729192827414,-10.887710171778684
701,-11.872985487732947,-12.631126802713073,0.68390658427963,-10.15721780356847
702,-11.070447154173447,-11.881389612833056,1.0647078469789517,-9.338530141293699
703,-10.104180965726426,-11.14710108721595,1.3835785907231033,-8.409679457116667
704,-9.022485957976409,-10.458153987728654,1.6327922880134698,-7.3642947053525445
705,-7.880138145543722,-9.831974034875765,1.8083287764987401,-6.206851333867244
706,-6.71347971130574,-9.27002264070395,1.9118622514808987,-4.9509570378902605
707,-5.541278975923972,-8.756645813872586,1.9503702768209914,-3.6278520962248564
708,-4.385284455532857,-8.26169877327927,1.9338169341127336,-2.2908781021619937
709,-3.281672430507061,-7.747959707017433,1.8784973452900828,-1.0052239737573605
710,-2.2624875944047895,-7.183290531915972,1.8165531415210925,0.1714748490695035
711,-1.333189851322173,-6.554911253830162,1.7904219753078319,1.202443040472112
712,-0.4833845815821135,-5.871308634014338,1.8311751732017048,2.0703925158347407
713,0.26892084529580307,-5.1513014732903075,1.9412099773807987,2.766149666952604
714,0.8646966939775134,-4.420345173694144,2.0932060475809053,3.286576093583897
715,1.239937866764155,-3.7120544711191656,2.2433235502051465,3.6383611502435595
716,1.3565237680759803,-3.0632176801672037,2.349924531974743,3.8414634023479586
717,1.2146805293540726,-2.506695368503146,2.388785360610512,3.9302957518036443
718,0.8287587985740383,-2.0671637099025766,2.351635927835537,3.93034806370343
719,0.20263606770476586,-1.7559242340740848,2.230875112166737,3.835170776092348
720,-0.6531878095737195,-1.567161439952826,2.011717711151182,3.616462055170971
721,-1.6998773478022078,-1.486208163956944,1.6750905571477728,3.245385885325412
722,-2.8607358305332315,-1.5038296823768822,1.2034705693162404,2.707551565591342
723,-4.044885830578679,-1.6138923608071694,0.5909932517685629,2.009633934559735
724,-5.185109251550802,-1.7967554046873537,-0.1461879274837526,1.1791991963411121
725,-6.2413231643741165,-2.021460004779405,-0.9728820743362183,0.2591550585291792
726,-7.179669811788588,-2.2666134327187297,-1.8489645526553034,-0.7052647411019006
727,-7.960770856080405,-2.5288433720650025,-2.73930158029035,-1.6741433086357382
728,-8.555847563441667,-2.814027537693022,-3.611272477939969,-2.6146805854859876
729,-8.969569554031885,-3.127590661887769,-4.42875796533681,-3.5074346965908663
730,-9.243436674887686,-3.470745235552076,-5.15654236590553,-4.348026955257873
731,-9.419544147889308,-3.832641286043798,-5.765424419202929,-5.137002350827003
732,-9.496338051685502,-4.180399938668855,-6.234154437319393,-5.8671724226607935
733,-9.447815043454737,-4.4659226783962875,-6.555680013852881,-6.525940001844346
734,-9.271164212863745,-4.643802030178761,-6.73682659203116,-7.108803054036136
735,-8.989654652799997,-4.681783486488866,-6.785209910208376,-7.616402096214882
736,-8.610708111231554,-4.5578811506929116,-6.693770751522595,-8.028702622150487
737,-8.105259044880427,-4.252546134293986,-6.4360187968763425,-8.29368907402003
738,-7.4393674343674006,-3.751791810471843,-5.976980365934748,-8.35454574356878
739,-6.6139165381469125,-3.0602403927060644,-5.290368202890237,-8.182897537392906
740,-5.67657460339224,-2.2130187207510037,-4.3681935074665255,-7.789392691559325
741,-4.683892391301063,-1.280158919257413,-3.22156858971182,-7.213030228447854
742,-3.6650491445053843,-0.3480606790435476,-1.8780535493182844,-6.503360990672278
743,-2.633208167820606,0.5180982876956627,-0.3783834223987239,-5.710120988316675
744,-1.6097690333377355,1.2883975869765245,1.2301719674797218,-4.881518075306056
745,-0.6317766052745337,1.9535764860865334,2.903104265528974,-4.063078662142723
746,0.27194435606471434,2.5100860965134073,4.6025869239194215,-3.285465680392502
747,1.1036603584064946,2.951657043728274,6.297781536595285,-2.5555608840771433
748,1.8831913579702158,3.2685005304952,7.962874663681676,-1.866551872692706
749,2.6053716291338334,3.451058751535815,9.574367342601933,-1.2111653962272206
750,3.2240639287821993,3.4966121489162068,11.112636513688999,-0.5865600335649658
751,3.6982151853313705,3.4169887645185537,12.561565548837894,0.009052160385941338
752,4.022427486130055,3.2320241654837134,13.899381872686497,0.5744543039473583
753,4.2107321833006095,2.952214150850733,15.090674478892248,1.0941800527309313
754,4.2698523867068445,2.5741597896513504,16.09427182142649,1.5343765145780817
755,4.185567893339522,2.0901827192781472,16.88005720203855,1.8538013252723315
756,3.9476368180531636,1.5051893098829057,17.440333677458415,2.027479905312029
757,3.581831696195136,0.8504103900906824,17.79230357447978,2.061264564927003
758,3.1752689103819223,0.18697149447747702,17.98617777389363,1.9854548996237165
759,2.724916931127725,-0.47938241932302283,18.029644401581955,1.8476301956524992
760,2.2260909473770965,-1.134105113170977,17.949918749065105,1.6932218901703178
761,1.6929077967831876,-1.7610620096845953,17.784336117665106,1.5638068606788338
762,1.1614041058822098,-2.3422377276772472,17.570087656861503,1.4916060440054237
763,0.6722008451195821,-2.8569952172106023,17.33882102887615,1.4909521231041947
764,0.2478722723598266,-3.2854806018126332,17.115947625456062,1.5540150397290293
765,-0.1106488776198292,-3.6152489040805404,16.917965418955262,1.6571399032276501
766,-0.4053606856600957,-3.8470904139577597,16.752434732127618,1.7726838884170122
767,-0.6243959208521807,-3.995206294002398,16.621595962585296,1.8768667730038606
768,-0.18930872542715882,-0.5499751047809892,-0.4025169051422421,-0.47951541702963774
769,-0.7106733692930047,-1.1760778153334943,-1.0008466290333016,-1.0879017715571293
770,-1.475765196647886,-2.058331468733002,-1.8823373094043205,-1.9438247358326912
771,-2.499034398471841,-3.201864574108487,-3.0596810149080627,-3.042572347237937
772,-3.7830624504332495,-4.590798915836149,-4.515706699549383,-4.362743804914438
773,-5.292057099645822,-6.186533022568878,-6.202845017986153,-5.862952026348498
774,-6.951010566298198,-7.930545427533751,-8.050301582443508,-7.482549753209716
775,-8.669473810727467,-9.755170045847512,-9.974956649666522,-9.14961432289416
776,-10.368710925380132,-11.60171155006976,-11.893987516089387,-10.79724566502307
777,-11.989327757925642,-13.43590820822541,-13.739582377469459,-12.379195792618475
778,-13.484857304707603,-15.262301325789265,-15.483299476032967,-13.882734603476974
779,-14.805805194972155,-17.06168248738366,-17.103425483009875,-15.281197807392367
780,-15.930917121302294,-18.813463008272596,-18.59357686134539,-16.557469598537306
781,-16.87702614764985,-20.498174217620182,-19.949643248646304,-17.70395189108381
782,-17.665423617812255,-22.092397422841742,-21.167127715868006,-18.71732084767223
783,-18.293528245117766,-23.5655808693177,-22.245622375786933,-19.595639643256447
784,-18.759640269926564,-24.891662954732826,-23.190891596976932,-20.338902303142483
785,-19.103935233227197,-26.06317976369224,-24.014175806645742,-20.959407154605568
786,-19.417014872895756,-27.091687668239942,-24.727926759112933,-21.48930225263677
787,-19.78844355530653,-27.998889188695465,-25.337573810275508,-21.969228557564144
788,-20.25855992471912,-28.812363060455574,-25.83987918613199,-22.428842535067684
789,-20.821685241617374,-29.5656267452539,-26.232139950612257,-22.8767371182938
790,-21.458631068055883,-30.293187296513715,-26.521364863724436,-23.307849593975966
791,-22.1615073015568,-31.022205003164093,-26.72539079454791,-23.715558489128707
792,-22.92108598327827,-31.76444154513101,-26.86591995598924,-24.098022367085505
793,-23.70975265291015,-32.50816202284296,-26.95891802702434,-24.455766059764198
794,-24.48321826352218,-33.22292259770742,-27.011905738572253,-24.785597412844126
795,-25.210247315863775,-33.877984515602606,-27.027087445492402,-25.085435567764662
796,-25.899386812097084,-34.44609410659668,-26.99563442646298,-25.35901666818368
797,-26.57117621762346,-34.89564612651528,-26.891799019757354,-25.609912334745847
798,-27.220642217617325,-35.19428558780183,-26.683436731168257,-25.83709959213503
799,-27.815899524694757,-35.31992673231804,-26.342330901061413,-26.03274209721267
800,-28.33087474161576,-35.26527951841333,-25.846662260093094,-26.184367701518088
801,-28.764810470356664,-35.03511516712187,-25.18754290991391,-26.28634503968406
802,-29.122929619886865,-34.64408087985698,-24.375569783802483,-26.34527329240804
803,-29.3913007159241,-34.114760745538035,-23.439714966322523,-26.368827519625555
804,-29.53273472027625,-33.47183990338617,-22.421449105222806,-26.359070055788607
805,-29.520893643456464,-32.73575801605738,-21.365694747442365,-26.31744181313933
806,-29.369811260008817,-31.920093563315856,-20.309208174586264,-26.24410942389315
807,-29.12123672665254,-31.02912435170583,-19.271940045164534,-26.131265703386596
808,-28.810939607350257,-30.061191243792422,-18.258449822090146,-25.95909425099408
809,-28.456485276445797,-29.017677955896538,-17.266343716002844,-25.697691168654206
810,-28.07132015219491,-27.908418685999386,-16.289945895506232,-25.313552827694352
811,-27.663587635697528,-26.75200655520276,-15.315892491796623,-24.780546108528746
812,-27.216077228465938,-25.56662891534364,-14.321004970690671,-24.086044313710044
813,-26.668862465987264,-24.363397274630685,-13.285179891084333,-23.22875973939946
814,-25.93744418178159,-23.15388942228566,-12.211411101319861,-22.222062968778605
815,-24.958889962883774,-21.95407831073928,-11.128009166310814,-21.098775694800846
816,-23.70561576643083,-20.780505449644323,-10.074607922307633,-19.90779324467885
817,-22.165748100270783,-19.647570529977482,-9.093749553752511,-18.703464125580567
818,-20.336423059340643,-18.561919488741875,-8.227519636622144,-17.531136781291934
819,-18.225638882783368,-17.51651604620931,-7.511353190414751,-16.41826478316403
820,-15.842934115786028,-16.499653386988452,-6.970587276467955,-15.374972867199451
821,-13.218855667433013,-15.513573546953774,-6.623649829056649,-14.403748492018892
822,-10.433062026043599,-14.575876217749244,-6.485040975998748,-13.51208037961518
823,-7.589218836170918,-13.705980796088554,-6.564611366053178,-12.717025651969122
824,-4.777950959646568,-12.91581354139761,-6.86534729347164,-12.03859349284612
825,-2.071979150058791,-12.209237091918245,-7.381215723066292,-11.491567299609374
826,0.45472201961954084,-11.58330248877601,-8.098575378664709,-11.084782929762278
827,2.709149763499785,-11.027610755236342,-9.000112347583247,-10.82331732590805
828,4.591893785861348,-10.52500678512545,-10.064217772453754,-10.703692993936993
829,6.029912167369292,-10.054250719802827,-11.261734206954818,-10.704076370891064
830,7.001778149400075,-9.593444209189759,-12.55472932996577,-10.786077203372319
831,7.531864543623446,-9.12399786878361,-13.897648610912354,-10.905888531547655
832,7.662601523546428,-8.633932934570392,-15.242004300220348,-11.02533496628709
833,7.441616893257202,-8.117510567403444,-16.542628930744165,-11.120650005770147
834,6.929878655692854,-7.574000420654901,-17.761209899276864,-11.179988496624926
835,6.214367998611471,-7.0071500314540085,-18.866229244208103,-11.1893547901144
836,5.388973600085794,-6.419826478850548,-19.83500600500239,-11.123963922085757
837,4.507121343025133,-5.8045433841940826,-20.659333398245565,-10.959294971145264
838,3.579567470882871,-5.140904471663222,-21.34541790760105,-10.685091772167231
839,2.629383509858584,-4.405837344766639,-21.90668196811449,-10.305653931059986
840,1.7194942089963208,-3.586334648964432,-22.359622079651384,-9.831492610093063
841,0.9122619361477795,-2.681973532848797,-22.72194690907217,-9.270046821330116
842,0.228221676256901,-1.6976376768600636,-23.009063386448844,-8.625399611114672
843,-0.3471920645258345,-0.634882095959044,-23.232118757421105,-7.903521606826648
844,-0.8259882623542047,0.5053273253197855,-23.39751894284364,-7.113926655545884
845,-1.19373473711828,1.7104336843043408,-23.509155349284036,-6.270131417017947
846,-1.4340035385484464,2.951116263295367,-23.570583159558414,-5.389152699378863
847,-1.5561123152607546,4.183033828557421,-23.580953834875004,-4.487502238811276
848,-1.5907888130796213,5.354669550174531,-23.530699725230207,-3.572510683070736
849,-1.5583366715829925,6.421217069206701,-23.40229278182918,-2.6346213312771067
850,-1.443327175498399,7.34981394699116,-23.176771762638914,-1.6538366274496192
851,-1.2187246171166448,8.116731461788513,-22.84293499656585,-0.6198140539615415
852,-0.8856954398069902,8.707232369441204,-22.399535469904976,0.4559727298737416
853,-0.4835931568957942,9.114470792228243,-21.85029005852783,1.5445831679733852
854,-0.0547823537089524,9.336533860091471,-21.199504701023034,2.611284802099055
855,0.3856279136582242,9.3780216429496,-20.451066253047752,3.632742567933591
856,0.8346562869276424,9.25460633583105,-19.60931329037968,4.606743194834295
857,1.2747921640858404,8.990055535998449,-18.681426390072968,5.537990798482599
858,1.6681479322973989,8.607773067041704,-17.68128380069754,6.415560714242484
859,1.9935269029952158,8.126403204148591,-16.628095696082653,7.215755120073052
860,2.268164194653883,7.5587725640957695,-15.537668755872854,7.923321065862147
861,2.5164703507004442,6.9153143905042675,-14.421263309294734,8.533463561605714
862,2.7330270888226034,6.209438068901014,-13.29279000047396,9.039493587457347
863,2.872824267766187,5.457512183413216,-12.16820582402005,9.429714576362626
864,2.8889055923435287,4.67525157376335,-11.059798619390563,9.69040324153428
865,2.7704435485867447,3.875110811100404,-9.974934355720185,9.8087618125464
866,2.5383699205878703,3.0654702500920457,-8.91719876583522,9.776539781687484
867,2.212660887817363,2.2512854081887492,-7.888250775422921,9.593969876556015
868,1.7953700659733078,1.4358349534100538,-6.8904089069513415,9.274174593033127
869,1.2965409539319788,0.622441629875905,-5.929715705005922,8.84074518912674
870,0.7548559208382479,-0.18366209546822762,-5.016141831343605,8.319968040008575
871,0.23023861463944215,-0.9734423772100391,-4.160771569144866,7.7377329889765045
872,-0.232852884603668,-1.7339103322351515,-3.3757472493873233,7.117375264762147
873,-0.6341187171580243,-2.449007809025865,-2.6712676717934634,6.476149507794438
874,-0.9934645205610564,-3.0993600655240416,-2.0467891206042266,5.82781927263918
875,-1.3193638312070493,-3.66136008086814,-1.4858718168662581,5.192514618406556
876,-1.6044288084109766,-4.109889986357623,-0.9608530115788867,4.5996567932281724
877,-1.8466996185434845,-4.423759826294174,-0.4403343159186997,4.079766094961968
878,-2.05797539781616,-4.589490152348292,0.1132057583991769,3.659644329044056
879,-2.240628426899687,-4.601692260525975,0.747902607063101,3.363485005022894
880,-2.3667908700686513,-4.460556161087844,1.5112689007345748,3.2121316346792015
881,-2.379087098716236,-4.171391374025007,2.433150878768838,3.220452926372489
882,-2.2308977523102906,-3.746012502296831,3.5225733788281226,3.3943300983857783
883,-1.9211219999419802,-3.200878822201422,4.7740757962484635,3.7288187928131973
884,-1.4764932143035403,-2.5496398687632884,6.171830626812545,4.209870129740494
885,-0.9114073534362213,-1.7972265465161803,7.690067679583101,4.818065135167196
886,-0.21581529654796935,-0.9702474140337325,9.259806546953827,5.502691932986742
887,0.6319944029770457,-0.024281461491491657,10.89279894076095,6.279638869439974
888,1.5905980230840664,1.0358928215765264,12.55125505200423,7.128786570308147
889,2.590160293271131,2.170765274590037,14.17668039873461,8.01457284070298
890,3.5725174254478866,3.320924445081493,15.708441507665396,8.897476687280887
891,4.497711607027371,4.421536554288442,17.088823484716066,9.736512683452647
892,5.32280881352712,5.413787901920722,18.269413365902768,10.492796127922531
893,6.003546975279321,6.251783601648942,19.21978371295269,11.132795622164135
894,6.5132723470383995,6.905744363793778,19.93012185281965,11.632138401703447
895,6.855661126362166,7.364460632363536,20.408708383913247,11.98233737254806
896,0.043834202704568614,-0.3976473493316878,-0.3722789532583941,-0.33121620604434043
897,-0.25353293021307594,-0.8770406957274577,-0.8820991771941395,-0.78665264979004
898,-0.7721174012372154,-1.5840710590707456,-1.6342911980504606,-1.484496689202767
899,-1.5543594214797443,-2.546145379397114,-2.65230275631533,-2.4565534118089514
900,-2.634715127451209,-3.765435475125829,-3.9432689230013813,-3.731180464082548
901,-4.0022924801274655,-5.205481759800584,-5.486700328048734,-5.316028667248114
902,-5.585139590622107,-6.799832450397484,-7.23279638940525,-7.1698667584613505
903,-7.275421992180975,-8.47617673721122,-9.110756656087174,-9.20631511327282
904,-8.975485304723723,-10.17534887650294,-11.041843832663526,-11.322791117069675
905,-10.615737540265114,-11.861632943556344,-12.95614985023347,-13.425709691923254
906,-12.146536974021311,-13.532416198176495,-14.81528456956869,-15.45080678735603
907,-13.524901026719949,-15.169892181357723,-16.581956519452135,-17.328467048094623
908,-14.736365659155263,-16.76038365024744,-18.238095828442177,-19.01712802458017
909,-15.808759057565908,-18.29785587650815,-19.780215386560897,-20.51591120219045
910,-16.785694292352918,-19.782415442716076,-21.214381253955516,-21.857689051602915
911,-17.692540429402833,-21.217807439213004,-22.55279144674668,-23.08686808710665
912,-18.52181864217572,-22.60555163369121,-23.806970216957307,-24.239672336698373
913,-19.259960700923635,-23.93273370048566,-24.981393207365578,-25.33628411143021
914,-19.923038235674795,-25.168777831001048,-26.071075966474282,-26.378782317444312
915,-20.53629815303512,-26.27521949108138,-27.060655845190478,-27.348384184605223
916,-21.093126428827222,-27.22052283402147,-27.924735119891917,-28.19881036648672
917,-21.555759614672922,-27.994866900192758,-28.633890100195025,-28.857857493967227
918,-21.89819102115973,-28.612687261217097,-29.1641879333428,-29.25392578936138
919,-22.129692856283636,-29.097333524417753,-29.502087584397138,-29.35028546336292
920,-22.277949421801846,-29.46231906577758,-29.647139823781334,-29.150745238426925
921,-22.355592425038306,-29.71001552701568,-29.615142725098153,-28.67874833303558
922,-22.33803673160968,-29.841463451116,-29.435360142536652,-27.96736312190603
923,-22.19779170138239,-29.861086154024324,-29.141317622641612,-27.06334452943238
924,-21.94684217860602,-29.773169690658808,-28.759789683039322,-26.02512568634903
925,-21.630095659732874,-29.573522873361092,-28.304258565113095,-24.91209327337241
926,-21.288548024869314,-29.248625821524442,-27.77822778714598,-23.779010477254197
927,-20.933918839125614,-28.784282801003076,-27.182862631403253,-22.670330956608097
928,-20.565699170619396,-28.18006010894511,-26.520138442852428,-21.60514460492668
929,-20.19716328289903,-27.4617528975295,-25.793614423176543,-20.581191061898874
930,-19.852997654258434,-26.679174116748104,-25.00852652931118,-19.593781401294315
931,-19.537732442220953,-25.88914154385128,-24.170051828828043,-18.642731842023572
932,-19.227464800177092,-25.135172198457276,-23.28487843693356,-17.732127139790183
933,-18.898339858874408,-24.439965626827004,-22.364585547673784,-16.871500006363465
934,-18.543574162060022,-23.8111417408712,-21.42496122599347,-16.07956467107528
935,-18.177298592638785,-23.24812054487572,-20.486319467902078,-15.384067478217903
936,-17.816579916639498,-22.744594275589577,-19.5737203899155,-14.810340532116912
937,-17.456653116592264,-22.289607633243648,-18.709524088337552,-14.36785366310086
938,-17.085639412645815,-21.870067106857736,-17.906408581183022,-14.049195243655982
939,-16.72503635663733,-21.47002431696438,-17.167795578147558,-13.845776831140315
940,-16.435855061765903,-21.068650883423494,-16.491809978212643,-13.759875738586535
941,-16.260455218378883,-20.64295933945532,-15.87139577814944,-13.790549439957019
942,-16.181919184956115,-20.173560667580173,-15.291103503278945,-13.911720781132413
943,-16.14958839749935,-19.6474791248065,-14.728378777983972,-14.06966867087524
944,-16.122025138145993,-19.056329303152026,-14.160778373488517,-14.201796192456687
945,-16.086081379649773,-18.3937147017491,-13.574455524110869,-14.26496077417769
946,-16.037574252287786,-17.65223010953141,-12.967006155926919,-14.246236604024896
947,-15.95589188215139,-16.826568522744513,-12.345127160761932,-14.14059704903885
948,-15.797820470800001,-15.919333266293728,-11.720574913541997,-13.93460790277114
949,-15.52574790695988,-14.93751066405516,-11.106026651175801,-13.61487301132402
950,-15.142704256883848,-13.889023024469749,-10.514080913700166,-13.179274294931584
951,-14.679319553982141,-12.783934135613515,-9.958784168630768,-12.642880232093026
952,-14.156428816396446,-11.633622376006032,-9.452008350808004,-12.034448617032645
953,-13.578642925656041,-10.451778746400208,-8.99487328802023,-11.388848180217254
954,-12.963919416773466,-9.255579073550512,-8.57706538817632,-10.744472358286265
955,-12.35254155120769,-8.061894430877343,-8.184457052662694,-10.133279541818116
956,-11.77175127397659,-6.889497513326604,-7.802991712544568,-9.559125826592023
957,-11.207736659135634,-5.768069242784263,-7.421293560045611,-8.995193478382236
958,-10.620172960187793,-4.739654158030881,-7.037512468045768,-8.4127768798692
959,-9.987427939189965,-3.846500895937504,-6.660637178698972,-7.8054861100191255
960,-9.325798793308612,-3.113804613638443,-6.299176039161959,-7.184795432767442
961,-8.664851354483682,-2.5454165237346422,-5.949115820842004,-6.566419266050705
962,-8.018330825580454,-2.1319325445915234,-5.5930963326610845,-5.960292371270234
963,-7.371263066994111,-1.8573924526475734,-5.2103385352400675,-5.363279962700675
964,-6.707811366767864,-1.7042475063639828,-4.789818658267914,-4.769246510075659
965,-6.051721708332451,-1.6588986665135133,-4.3336497417077435,-4.192827222969693
966,-5.464347659961293,-1.712259088918261,-3.853250217828845,-3.6706231280901624
967,-4.995696574700239,-1.852178195445418,-3.364218137651407,-3.236287524340343
968,-4.645872824642633,-2.0570433118156273,-2.8803227139388685,-2.9018685929665646
969,-4.3876668609389995,-2.2983887368949247,-2.4137849151241806,-2.6613323286899857
970,-4.198804508659915,-2.547385894388413,-1.9789067906751032,-2.506091839073842
971,-4.063290737422575,-2.7805456983531176,-1.5902465812189899,-2.4321628654020455
972,-3.954612459114907,-2.9813478062428342,-1.258302692720515,-2.4340442882347175
973,-3.8288897147415417,-3.1354474165744426,-0.9886284791618475,-2.496391343923076
974,-3.647533816987081,-3.2283381370504025,-0.7818562409085753,-2.588257547547995
975,-3.396028462617383,-3.250815370324464,-0.6323819202025831,-2.6644116194695515
976,-3.081601623422353,-3.2058397575650655,-0.5315103301754905,-2.684997020786837
977,-2.7147108457954716,-3.112443721631606,-0.4767481294279402,-2.631923740847459
978,-2.2975782519955525,-2.999697081744246,-0.476084090999117,-2.49982759786406
979,-1.838264063988138,-2.8930577084143896,-0.5415222615502496,-2.2891474837440025
980,-1.3718396930568437,-2.8102453762167463,-0.6786494394230483,-2.0159758240352232
981,-0.9617764327276408,-2.7626920434497455,-0.8788109943286423,-1.7088442302193685
982,-0.6576545998804949,-2.7531905371945578,-1.1201324968497237,-1.3853430666771382
983,-0.4620947809488061,-2.7781150834970916,-1.3750074559384056,-1.0419606781115895
984,-0.34730889362842826,-2.8330170937176344,-1.6163025465463465,-0.6656741125142229
985,-0.2908621036515771,-2.910450447322079,-1.8249584890652526,-0.2494178625142775
986,-0.2899491214732888,-2.9922301879033957,-1.9938155040143621,0.1995402510538773
987,-0.332859468939464,-3.0489876211415248,-2.121271944154492,0.6680436927264932
988,-0.37748008104937464,-3.0480996466841868,-2.2035045524854953,1.1487627321982499
989,-0.3608668227698818,-2.9622880383488797,-2.23139923929474,1.637736283945738
990,-0.23239389344417505,-2.7783170739145393,-2.1917487431770493,2.1222795360503315
991,0.012000325581631707,-2.5010861264847466,-2.072238907136219,2.573991233944633
992,0.3410548637328246,-2.1460220937983587,-1.8646751976656342,2.9597807691265627
993,0.7227838750913,-1.730551031770498,-1.5633439410447587,3.2616773579167373
994,1.1392977685415033,-1.272073540143384,-1.1653719679890806,3.4852250853144513
995,1.5690868303313992,-0.7870822169470653,-0.6715666926478653,3.645173846235338
996,1.9692400246293758,-0.29108129632803065,-0.08518376399586816,3.752003180948277
997,2.286955031673339,0.20319726560315451,0.5841401280620967,3.818873905944218
998,2.48877925414624,0.6901325809511041,1.3138404373920687,3.864462047838159
999,2.5805494346915143,1.1711384693956666,2.068482169846575,3.9021820476227655
1000,2.581486290356025,1.6489329207057601,2.806664605133039,3.9363580477120688
1001,2.4945612378477686,2.122150152676149,3.491043753894212,3.9661081345944953
1002,2.319800777312048,2.5838528920131956,4.098648844752016,3.9849236697349513
1003,2.080637315229497,3.023994567135305,4.624209791926264,3.986206233037277
1004,1.8276010928782387,3.4335449535234877,5.071659207210793,3.970908580903453
1005,1.6029528508253423,3.810988047536445,5.447531802119428,3.938981933505274
1006,1.4103144939626702,4.16905204886407,5.76534623752589,3.882699762089147
1007,1.2334502992185055,4.532744602983843,6.047093186358529,3.7928418231767504
1008,1.0795008906733163,4.9292274462789205,6.316936250481116,3.668651988358054
1009,0.9895069074949188,5.376027955631328,6.593311679035153,3.5223908597307982
1010,0.9972948154170534,5.874358878022881,6.882303222179938,3.367700642952574
1011,1.092937825722655,6.4115120800205245,7.175195697020095,3.205340973463923
1012,1.2277139872563574,6.970254965278785,7.449035092414909,3.025635157419851
1013,1.3561690938708453,7.538314391350967,7.672799707328296,2.8246728832259937
1014,1.460817911747723,8.092928759611357,7.8243286367826785,2.595296025205584
1015,1.576451964160223,8.644023328245547,7.885612640583976,2.366198385120847
1016,1.7047209622427422,9.182625071690264,7.856821988086655,2.154792836390145
1017,1.8291513200502527,9.696898879144145,7.75262704212453,1.9723806374486483
1018,1.9483020356641998,10.180527332537789,7.596610384440174,1.8279064637975153
1019,2.0757983072857518,10.629504819214073,7.415777405275455,1.73087860797442
1020,2.2149009644623185,11.037338768031756,7.2372043527844605,1.6877705245927677
1021,2.3529125428171227,11.39451559624731,7.085396446431158,1.692147361237905
1022,2.4754082882046915,11.689781047604882,6.97751862111792,1.7272104068102212
1023,2.5840038766796187,11.911217908796647,6.917341640045656,1.7786983333001716
1024,0.24839711534098538,-0.30033951658640146,-0.30814585738136707,-0.05556376253898354
1025,0.2666046904417877,-0.8069595685097992,-0.7726916722595142,-0.3192278599582603
1026,0.1779855172170708,-1.569949901637332,-1.4906776852059074,-0.7656588838189203
1027,-0.07484374940438443,-2.5969202895382,-2.4958694888100217,-1.4292888609621404
1028,-0.5618773073084848,-3.870455892776029,-3.8039300713860196,-2.3371104332163695
1029,-1.3297040245718967,-5.350105978972818,-5.403672351337095,-3.4900624439175796
1030,-2.3705260315724064,-6.977998235494898,-7.258472187219545,-4.858594067967103
1031,-3.6331098501256305,-8.686097903833685,-9.318784302787051,-6.392543075598934
1032,-5.061374392021708,-10.40872556356345,-11.533821297190002,-8.034569031065471
1033,-6.608072636418875,-12.101407165449373,-13.861292208344654,-9.73335362881933
1034,-8.220270308264196,-13.757851928433494,-16.280571578984294,-11.455443628271055
1035,-9.830407262457317,-15.371972051928111,-18.75424627190472,-13.175855429842583
1036,-11.390661885389797,-16.945654418746162,-21.244657197227976,-14.88149542666519
1037,-12.902874790479192,-18.47417132458339,-23.712807067478018,-16.569331059392816
1038,-14.391675349259831,-19.930778518130968,-26.115580181022192,-18.239940290426077
1039,-15.870131584118848,-21.270747506606945,-28.410056895951204,-19.889515417885704
1040,-17.33243334733441,-22.45039280254184,-30.556513827954888,-21.50654227147885
1041,-18.769359515763394,-23.440255408353696,-32.520801324972936,-23.073770138439656
1042,-20.174894566461244,-24.228156621613792,-34.28055394675863,-24.57119955403641
1043,-21.536644314364334,-24.819058847672995,-35.82568486926512,-25.969654304334046
1044,-22.81949141598075,-25.23442702024799,-37.155566665747166,-27.222923241051053
1045,-23.95963686997524,-25.510612546261648,-38.280701883767684,-28.280318017740125
1046,-24.905191307722195,-25.69398867708451,-39.225550275662975,-29.119210303013013
1047,-25.65711278051392,-25.82986458146562,-40.01954958298656,-29.760237816365777
1048,-26.25448513741562,-25.948262305201837,-40.67937471104429,-30.24858679024058
1049,-26.7298465368044,-26.05410125071865,-41.20350309288685,-30.629390913989987
1050,-27.092438419025555,-26.12397770169216,-41.579510858573165,-30.930732625216788
1051,-27.341365654178556,-26.111261790974385,-41.78882539867906,-31.162667874268354
1052,-27.484805873979052,-25.963573655080285,-41.80810130698182,-31.33026742422087
1053,-27.555723353625435,-25.64199698109819,-41.61289192702092,-31.437801346515773
1054,-27.577807004809976,-25.131942522806234,-41.18400020437813,-31.48229408194289
1055,-27.527411338698137,-24.447457157699237,-40.514715332657495,-31.446593889202582
1056,-27.354310504746994,-23.627024814938935,-39.613203318293195,-31.29790838873077
1057,-27.01596042721001,-22.719304074598647,-38.499621688559415,-30.99530445151843
1058,-26.498903410372385,-21.76821098991158,-37.20100401354802,-30.501823181553334
1059,-25.80799813289466,-20.80975920078824,-35.74402096536905,-29.796747597447276
1060,-24.939650521964587,-19.87520324560543,-34.1538603135441,-28.88139364968147
1061,-23.88528152947683,-18.987775793014528,-32.46012789709649,-27.772139477416857
1062,-22.660719151655055,-18.156913480484967,-30.697317184978314,-26.49233369418142
1063,-21.319920029778565,-17.379043660921706,-28.897572348348454,-25.069916413400342
1064,-19.922206966805298,-16.64566700898622,-27.086349093215546,-23.533730020198217
1065,-18.505200281968953,-15.953493084085643,-25.283832563776503,-21.914735455868474
1066,-17.095450821180115,-15.311283215655672,-23.50669872878828,-20.252236454040688
1067,-15.728430658814132,-14.73866436025382,-21.768990454638853,-18.59302194299677
1068,-14.459132886283149,-14.257690129203516,-20.081114361851384,-16.984676936835818
1069,-13.340455438813139,-13.882376700521414,-18.448590145559606,-15.467343887591678
1070,-12.381436803219847,-13.608922830363097,-16.870737816109376,-14.06730891822284
1071,-11.543223109782977,-13.416131633356514,-15.33962125594032,-12.795439963731269
1072,-10.792407085364502,-13.272559334995815,-13.840552220646238,-11.654206496268573
1073,-10.128907810351109,-13.139904444878196,-12.355567980200293,-10.64934649305914
1074,-9.56038076297657,-12.980496834425466,-10.868713880415132,-9.791233596029414
1075,-9.077767180975963,-12.765210254750421,-9.368301984212717,-9.080716324977372
1076,-8.647448063950554,-12.470648524757053,-7.850295142234895,-8.494629090839847
1077,-8.24382004231977,-12.08001593233973,-6.320590634868887,-7.991830199693788
1078,-7.878976407219589,-11.59687972533845,-4.791064245663704,-7.53337026189356
1079,-7.584628677724923,-11.052690660590862,-3.276639123798583,-7.096156481251178
1080,-7.3817925758883405,-10.498569892643888,-1.797659424493642,-6.671601511819095
1081,-7.260433784689081,-9.988618292285173,-0.3816159150924908,-6.260414167430219
1082,-7.204186808369434,-9.568865028175235,0.9413014817070047,-5.8718798323409604
1083,-7.224781678608113,-9.277209972921375,2.1456174689480814,-5.524271869460505
1084,-7.350234170059503,-9.137103367813385,3.218058016381511,-5.234485057573885
1085,-7.589215146882667,-9.141425464359676,4.162496999390818,-4.997225520333326
1086,-7.909250416965809,-9.244443402336941,4.996661514846125,-4.7831685799010355
1087,-8.263157622878273,-9.37708040724061,5.742352451285451,-4.559954603067418
1088,-8.62723043931853,-9.473695066747357,6.414825220350885,-4.310952915850727
1089,-8.999603428013366,-9.485183033293062,7.017580719953575,-4.032067123306535
1090,-9.368238128861304,-9.382414146902383,7.543806637355236,-3.716216241359328
1091,-9.694876241275763,-9.160493232904106,7.976427503339771,-3.354090213424921
1092,-9.942293872124406,-8.839650820288428,8.284735118339972,-2.9505097988265283
1093,-10.107731829065465,-8.458882804847223,8.427954521040817,-2.537365144566375
1094,-10.222540735466493,-8.061300599801879,8.368087910945023,-2.1607186991268463
1095,-10.309134587528275,-7.678960755787948,8.08033299659063,-1.8438971109682816
1096,-10.354296494679208,-7.335968673462495,7.55847581209393,-1.5708783833842088
1097,-10.33112665596454,-7.063190230186842,6.817375604735843,-1.2992922445179593
1098,-10.231260572480588,-6.896727144716723,5.889829130605083,-0.9873285858632372
1099,-10.079966654507984,-6.860899861775547,4.822510926273389,-0.6205719539363799
1100,-9.90225977868064,-6.952242990733284,3.6730842959911154,-0.21489228656752132
1101,-9.693686153996662,-7.144985869639057,2.500883313715939,0.19878494907870073
1102,-9.437630030957516,-7.417527011102747,1.3527636086639638,0.586785370964036
1103,-9.133075303215493,-7.7627829748361545,0.25520761902094913,0.9152230905452067
1104,-8.807969070591229,-8.170544995871937,-0.7818664129628166,1.1490608325523346
1105,-8.491098402344168,-8.609173400130883,-1.757178577562369,1.259821034174507
1106,-8.185239913874666,-9.029400541879738,-2.6747915984578494,1.2367471927998075
1107,-7.874461766842254,-9.379415446400987,-3.5444945760470934,1.086961098958899
1108,-7.548579916301533,-9.61286472737752,-4.379007190641579,0.8302658068466662
1109,-7.219642780416611,-9.692917942389805,-5.184556931419803,0.4961028152972346
1110,-6.902581045813157,-9.599053333370293,-5.955115696927184,0.11882120595451365
1111,-6.593518019451982,-9.333970483361458,-6.678144037027927,-0.2745222185913691
1112,-6.273028223183758,-8.920239624005335,-7.342329634034777,-0.6784034586913815
1113,-5.936334561472692,-8.387026363740123,-7.939265882623509,-1.105053108476702
1114,-5.612785504237241,-7.761404762760158,-8.461879969797684,-1.561979283416116
1115,-5.342017065548565,-7.074772812603201,-8.902542892851185,-2.0366060193882687
1116,-5.140699410999024,-6.371708477852591,-9.255079107270413,-2.49507905683784
1117,-4.990360522075522,-5.703439578505839,-9.523970676151292,-2.8915825448277714
1118,-4.871629707024525,-5.113341132214213,-9.72802619139642,-3.1904542499715807
1119,-4.795741320561861,-4.622424860263398,-9.887584143263842,-3.380280478602803
1120,-4.777691974331691,-4.222370928253827,-10.009941367348935,-3.4638158601912528
1121,-4.793174298278171,-3.883749771601661,-10.087099523900143,-3.4339412518821715
1122,-4.774850035919222,-3.568493770114296,-10.100918640528793,-3.2673089766033154
1123,-4.66016901177655,-3.2382493998630473,-10.028548573284114,-2.9470380619642293
1124,-4.431663977834449,-2.859799689381658,-9.84635723936026,-2.476111470082909
1125,-4.104717326810032,-2.408346799427182,-9.533441402719575,-1.8729958805043914
1126,-3.689073020086583,-1.871047334990741,-9.076480333156244,-1.168224107525511
1127,-3.1752010567569746,-1.2523866026811603,-8.473493934903258,-0.3980223795381367
1128,-2.56069454776453,-0.5753184278408096,-7.732742568977576,0.4063620533231848
1129,-1.8763559099657472,0.1251256372110406,-6.871142491666697,1.220716514003505
1130,-1.185026186405503,0.8082567680903006,-5.917456855909846,2.0194459715587287
1131,-0.5440926207341148,1.4353891531543364,-4.9117742866866285,2.771922378751727
1132,0.02568741037151876,1.978726392318999,-3.896130382809255,3.4485119752569577
1133,0.524222551683141,2.421100804305478,-2.906828160647903,4.0269627412553595
1134,0.942497929233172,2.75399139419505,-1.9705536723570634,4.4942961267077335
1135,1.2526717916729941,2.981822834884469,-1.100761618943793,4.848990218769901
1136,1.4407946447561994,3.1213678371223015,-0.30141378269111435,5.1048064682934795
1137,1.5304485136660189,3.1956032401597114,0.42484595824650045,5.2855669668721355
1138,1.5578641408549632,3.23138059006338,1.0776385902974812,5.409797028177877
1139,1.5501130922804096,3.2582270042616672,1.664352380897671,5.478881381489328
1140,1.5232577745556621,3.3024603752529793,2.1985246792954944,5.481807188528315
1141,1.5017189740672379,3.3805156516805224,2.6945174210307794,5.41292166970992
1142,1.5037348569795923,3.4991183751632438,3.148241216933038,5.265048539537064
1143,1.604736058912661,3.634783693582781,3.59038954311804,5.0817008924929725
1144,1.8191708048557433,3.764580658722175,4.031877679076059,4.898880891637697
1145,2.125871846424118,3.8704909381758723,4.468485121949004,4.7399847965974145
1146,2.500650174272296,3.9408073180034564,4.887906827700003,4.617966423684185
1147,2.9279917724801305,3.969691868307843,5.276658107864381,4.54089740970467
1148,3.3864770084774247,3.9571722191307512,5.622067146194022,4.512248670954408
1149,3.8306431141794404,3.9102499249417737,5.911012258188947,4.527599009852772
1150,4.204549071591018,3.844330781648762,6.132938636592209,4.575952489735212
1151,4.477586431305311,3.7788942290662755,6.286000435067757,4.643609237290133
1152,-0.1726548994911723,-0.5175336536329513,-0.516991335670312,-0.5053087539345464
1153,-0.5607151251548153,-1.2303861799159472,-1.1577755348633294,-1.021547096173187
1154,-1.1505340830148691,-2.270840234737144,-2.0787386358737914,-1.7168572807042775
1155,-1.9488758828166812,-3.6365400710357805,-3.285065325042619,-2.581890461287662
1156,-2.9621197989482195,-5.289582504394768,-4.756449664027317,-3.6082384566653687
1157,-4.178398777663839,-7.157068792883624,-6.440875155779401,-4.782242229608051
1158,-5.546451439335644,-9.139313237851022,-8.255445023873971,-6.068393255630463
1159,-6.982302507380069,-11.128668518921216,-10.101634209857357,-7.413321149684988
1160,-8.403771949527439,-13.034674477686917,-11.888526796177572,-8.767902828317485
1161,-9.767522292608186,-14.807049590222785,-13.557498393384584,-10.108298330721901
1162,-11.076207967799546,-16.454936717901877,-15.10449568968608,-11.448869632325549
1163,-12.319820730043027,-17.98094674291367,-16.517402197849403,-12.78014953990154
1164,-13.48783672656193,-19.393753713474904,-17.79440088200733,-14.08068592547449
1165,-14.594399215621822,-20.7078053247438,-18.94849525387369,-15.325424624728775
1166,-15.67823466253132,-21.94215628366268,-20.005653146266926,-16.501769507035092
1167,-16.766578742897504,-23.111475851729168,-20.993855826966055,-17.610669756889916
1168,-17.84300593365036,-24.215017835864977,-21.931278219399204,-18.655856359955436
1169,-18.870862925374897,-25.238257698763686,-22.823736430772616,-19.641803369895108
1170,-19.834473835892247,-26.16599221910745,-23.669646166691944,-20.576276362654436
1171,-20.743283337657143,-26.989045427901473,-24.463488350016195,-21.468192871804906
1172,-21.596600304886977,-27.700524018741255,-25.19568914917431,-22.31758279791355
1173,-22.35988384066515,-28.29331810423307,-25.85568278793207,-23.107917855397183
1174,-22.985158320150045,-28.761481798458096,-26.441037925639893,-23.818517981286696
1175,-23.444748495481093,-29.097448815204388,-26.961436782654655,-24.445412972193427
1176,-23.749612991890462,-29.290211348513512,-27.428995555507065,-25.00112748750815
1177,-23.92531453430318,-29.328917092641323,-27.845509104364954,-25.500590315965358
1178,-23.973172238171827,-29.207085173578122,-28.200643262651585,-25.953829249112236
1179,-23.866070249762483,-28.930098928920454,-28.47782709468422,-26.362381616212513
1180,-23.589009319144683,-28.522003987581886,-28.660102003668687,-26.725279597692168
1181,-23.16925832272671,-28.019713608222727,-28.732019602979616,-27.046702538554847
1182,-22.648087603006786,-27.459991204441312,-28.677680799165365,-27.330459637635112
1183,-22.052185987297484,-26.87092707619705,-28.48553973523652,-27.574109068034915
1184,-21.398252347351484,-26.268867250056974,-28.1585195212507,-27.77104260081406
1185,-20.720561960086822,-25.660511056987158,-27.71734765766432,-27.916777626333456
1186,-20.083053338568046,-25.044756950942425,-27.194826344458995,-28.010584141886266
1187,-19.540794486619838,-24.411953093229716,-26.62586084538168,-28.05271856104175
1188,-19.111047879217427,-23.74302663680122,-26.04043990688433,-28.040006890639322
1189,-18.78247062613311,-23.010342566438467,-25.459822533038935,-27.96065942668099
1190,-18.54476619012114,-22.19309120940942,-24.896335475604424,-27.802384043160252
1191,-18.40660423274056,-21.29840279906364,-24.35479122780482,-27.563929729341158
1192,-18.37424196432013,-20.35841618569811,-23.8320910557989,-27.24912693548964
1193,-18.420536690003317,-19.40837169898607,-23.32026456767632,-26.85344116829809
1194,-18.47877275186236,-18.471874032616434,-22.81192905848756,-26.358459384174168
1195,-18.49047925655555,-17.562256627710944,-22.301465318115937,-25.743082367732683
1196,-18.450771306720153,-16.69006361342191,-21.782239856669065,-25.004571413381683
1197,-18.386129212800213,-15.864568000082306,-21.24615353236578,-24.16274725795093
1198,-18.307086449458016,-15.092351847316339,-20.685647742394806,-23.24565239809242
1199,-18.196779716425862,-14.37759361782887,-20.095585926307994,-22.28071950603346
1200,-18.042596411459854,-13.721680680064226,-19.47560344231497,-21.299413726667044
1201,-17.860970343103507,-13.124913216434,-18.82981569923953,-20.344225752324288
1202,-17.691826208757256,-12.588420361339699,-18.16308978604599,-19.45986070564226
1203,-17.558875086942738,-12.112491649373641,-17.475982517219837,-18.673255884893216
1204,-17.43478478589665,-11.697876885057397,-16.762494617761366,-17.983586877028717
1205,-17.272473538762323,-11.34981076331586,-16.0147212582513,-17.36938514578564
1206,-17.052548705236266,-11.078501736990415,-15.229865070903282,-16.80394465920388
1207,-16.786859465548613,-10.891942239331891,-14.409039869400244,-16.257690451007083
1208,-16.482938306983396,-10.781647871986968,-13.54908395441356,-15.690885261795575
1209,-16.119036117915325,-10.723991599662297,-12.64316309375735,-15.06088051414475
1210,-15.671888937611069,-10.700113780082821,-11.690892250247002,-14.340194282882509
1211,-15.152478496475156,-10.700439819479119,-10.705788853053884,-13.527292976678467
1212,-14.603183178252213,-10.71331029047393,-9.716544541795626,-12.641466254976837
1213,-14.053390249461577,-10.717688294129298,-8.76122777116395,-11.707586037955275
1214,-13.490972239157953,-10.680673831061197,-7.876789166936231,-10.746856471353585
1215,-12.889776463481557,-10.570095262762745,-7.091916835249627,-9.782487907501306
1216,-12.247049326442555,-10.376387892725383,-6.42526639218923,-8.850444957107992
1217,-11.594550574473923,-10.115428761483656,-5.883964230625148,-7.997017005694421
1218,-10.971084785204418,-9.815331962184988,-5.463180459763023,-7.26588023016271
1219,-10.392657997496192,-9.50479818073723,-5.151029028831544,-6.68744393645142
1220,-9.856515466846494,-9.208158738090246,-4.934858518451883,-6.274933281676182
1221,-9.37424046754596,-8.944102999422604,-4.803772065977248,-6.023442034331152
1222,-8.987069307613481,-8.722382117461883,-4.746495769073088,-5.908520542761012
1223,-8.717904992291666,-8.54119522086962,-4.752272060799984,-5.88864305394303
1224,-8.536331575925338,-8.388714027400638,-4.816851916304272,-5.913388118169349
1225,-8.380364659111901,-8.247457857416723,-4.946724571906166,-5.934508353166512
1226,-8.19583822759346,-8.099175105015057,-5.1576526212120495,-5.9177555888295315
1227,-7.9582310920560495,-7.925328128539449,-5.463765110708196,-5.851207890001424
1228,-7.649039761893812,-7.706581846172507,-5.864871437010404,-5.740185128669703
1229,-7.233242631912338,-7.4285027901102625,-6.342841587917466,-5.590849295378959
1230,-6.6699487752070254,-7.0898826321545805,-6.869664733145743,-5.402023149181007
1231,-5.945244168321248,-6.70597712773832,-7.419315660669318,-5.168833861645483
1232,-5.09086562987444,-6.299671504767389,-7.9700389807535235,-4.880495464550206
1233,-4.152765330067423,-5.884161326656781,-8.499120757744347,-4.51129337427903
1234,-3.147374037263693,-5.460025070485025,-8.981703508269078,-4.02570452616859
1235,-2.0494783651137056,-5.0290851754802475,-9.39531613624187,-3.394047824661611
1236,-0.8353784230170831,-4.601822864092113,-9.723544581376556,-2.60247215842604
1237,0.46822626330353023,-4.19312620674077,-9.95764043400354,-1.662580617128555
1238,1.796398025752395,-3.815020402069541,-10.098907336209546,-0.6137494294859588
1239,3.094063815909053,-3.475030329324053,-10.159421721375764,0.486302294352713
1240,4.335003308863595,-3.179234240878878,-10.157990590746886,1.5705907249471698
1241,5.482708044419819,-2.932183696933452,-10.116757531687549,2.5718969255376196
1242,6.462468857913354,-2.7346642354406816,-10.062736745408413,3.4337579546379646
1243,7.186977708446473,-2.583882990902658,-10.024416354916438,4.121294009288031
1244,7.598327720317883,-2.476713071204892,-10.022765866807347,4.628965833053034
1245,7.6871902221723225,-2.4119454064310606,-10.066869163945661,4.975625745374542
1246,7.4717110328814424,-2.3885377049550343,-10.154538368500285,5.190930246071083
1247,6.975852544124817,-2.40268381926475,-10.273130424004409,5.302654530857786
1248,6.22935685444443,-2.4477817985382777,-10.399108045820272,5.326764069445345
1249,5.286159223640285,-2.5179719645690595,-10.502546973240275,5.274644025522377
1250,4.229019939653666,-2.6120452091684228,-10.557178574062686,5.167204754095939
1251,3.1360326513175005,-2.733878368206625,-10.546946140334384,5.035282689668311
1252,2.0461692189038274,-2.887416718992643,-10.46534338880527,4.908142639607858
1253,0.9573908357094699,-3.0708970229723693,-10.311819833904137,4.796452416047439
1254,-0.12562160315629853,-3.277222919048349,-10.089889145819047,4.6902553874919946
1255,-1.162636790732965,-3.499178021982005,-9.805465535078733,4.5778516026467395
1256,-2.1090165599031234,-3.7311943684712157,-9.466787908057947,4.465144580810042
1257,-2.9427524111134433,-3.9634902014995,-9.084831673025022,4.374660966470042
1258,-3.6603905208492296,-4.1789402833935885,-8.666139118046258,4.3304616927763115
1259,-4.246361683806777,-4.356865274223348,-8.204047123627854,4.352358232176124
1260,-4.654118634353473,-4.474876013763618,-7.683030667703337,4.457865459255376
1261,-4.821127086730288,-4.507449039251487,-7.091287233191953,4.664828523224152
1262,-4.701437237854987,-4.4263376273138935,-6.425439417374882,4.985348057179989
1263,-4.290684874628702,-4.2036753309654,-5.686819795698797,5.413573361173314
1264,-3.614022274560845,-3.812549868383207,-4.875128523598428,5.927690293383906
1265,-2.697716462195718,-3.227558553909169,-3.9859034827361453,6.508491801507285
1266,-1.5551860400858764,-2.431438548824061,-3.014741022544926,7.151478289278307
1267,-0.211019772346502,-1.4220562487807382,-1.9620387762670304,7.854334721884599
1268,1.2762969768652315,-0.21540621064424814,-0.8333869598853123,8.609548998735255
1269,2.84026446301806,1.155139432794962,0.3623498269772716,9.413750827941616
1270,4.387852220951906,2.6078748931893077,1.567432174422179,10.227466622399165
1271,5.973695478217495,4.126676738169484,2.8386489067271685,11.12987908051521
1272,7.580804006179324,5.660310028828687,4.176968598588234,12.14563826113492
1273,9.14522386958859,7.14345041161255,5.547922719289864,13.250831988638511
1274,10.606443605227733,8.510766830310024,6.8998832332130595,14.391162944124948
1275,11.929074842375886,9.70577095478807,8.176029164885446,15.50454555739183
1276,13.092034031346259,10.69035814523979,9.320090681276007,16.531266417438214
1277,14.066880099370156,11.450132910568048,10.284777118443714,17.41498913996356
1278,14.81820169148742,11.992103007335555,11.041298334749465,18.109353610824826
1279,15.330060938964973,12.340752204025096,11.582383035729968,18.590469579072668
1280,-0.02391865467509191,-0.2996940514656154,-0.4464522049333876,-0.24249170411068338
1281,-0.31216441302023906,-0.7599486285136097,-1.0248397713506585,-0.6932519819374907
1282,-0.8019224585964808,-1.4323253119366761,-1.8708998617537707,-1.4081287093873462
1283,-1.5227750968373357,-2.3214299395095384,-2.995883205225658,-2.4152188310610634
1284,-2.5235975205954273,-3.4146569483001152,-4.388838136568817,-3.7222454920445625
1285,-3.8501692495603184,-4.684270820412368,-6.021160155299521,-5.310021926866419
1286,-5.507602294308799,-6.095617313393951,-7.851890938700757,-7.129690196268198
1287,-7.4534061974093735,-7.614538436514924,-9.83248744007134,-9.106702401873253
1288,-9.624804849749705,-9.21167571004612,-11.914365577120849,-11.155543668954063
1289,-11.967376799730989,-10.868140071056528,-14.059491621187316,-13.203609615394772
1290,-14.43751068765201,-12.585302569864911,-16.254431565926115,-15.2121857775366
1291,-16.962788008000754,-14.352932307168576,-18.461141236332555,-17.135112997873986
1292,-19.457518580806894,-16.15430772222726,-20.640089967818835,-18.927186309028546
1293,-21.855590472125066,-17.96170139260477,-22.754384518979,-20.551690784715262
1294,-24.12163111515793,-19.736693668832267,-24.769318859337588,-21.99319228567464
1295,-26.217433093683486,-21.433376543790917,-26.65334558911244,-23.25672603592855
1296,-28.082137334014543,-23.00502567055565,-28.38112124329331,-24.355484459028972
1297,-29.66475065007214,-24.415523151276197,-29.93597431320317,-25.297725256704283
1298,-30.95429079540405,-25.643437256267703,-31.311682626428748,-26.08551614917926
1299,-31.967276046659595,-26.67630153816589,-32.510186937825935,-26.71980417581093
1300,-32.704437487378435,-27.506761373655582,-33.5370717192919,-27.196818188581844
1301,-33.13241046851696,-28.134022796144855,-34.39552014394804,-27.505932239412296
1302,-33.21386245461584,-28.566378473195947,-35.083573614338064,-27.638507558625548
1303,-32.94793944202999,-28.820377395302263,-35.601983383730484,-27.59635342122337
1304,-32.377835091072434,-28.912607840150624,-35.954454196539515,-27.38745484899405
1305,-31.55210155289189,-28.85232607326458,-36.137326333866746,-27.016211425686567
1306,-30.493963780550363,-28.63951236859266,-36.139085002173644,-26.48019885668902
1307,-29.214852746873504,-28.261519000473918,-35.95116539994504,-25.777281419784718
1308,-27.74466643514391,-27.711717011922214,-35.57747192680641,-24.91771092840701
1309,-26.131209181607566,-27.032846931796563,-35.02938135566468,-23.924951732035925
1310,-24.401277912222323,-26.34288373693282,-34.315339913375794,-22.81440673357873
1311,-22.539124252088783,-25.802270713643928,-33.44227080423756,-21.573854391716697
1312,-20.516584797793822,-25.54856055212826,-32.423070208000034,-20.183302554654013
1313,-18.334274555496982,-25.673182819850652,-31.277874981091333,-18.644392259478305
1314,-16.004865328275912,-26.226139501553245,-30.009980876295863,-16.968719784940816
1315,-13.51794725719444,-27.190964303279113,-28.616634897504714,-15.162233715690412
1316,-10.87658936574388,-28.510849023452824,-27.158720985779013,-13.261498278281108
1317,-8.09032818448975,-30.19324814074466,-25.740905681742742,-11.302972030273423
1318,-5.087178215212532,-32.284821289538876,-24.381857549011716,-9.211113910793244
1319,-1.709549469851075,-34.73452774950341,-23.0067979404501,-6.792271406266478
1320,2.187466227915005,-37.36934692526848,-21.561475063648718,-3.8560225110842157
1321,6.623340510129386,-39.98823064130803,-20.019570461258922,-0.3563124917366912
1322,11.469301488208608,-42.44760227306688,-18.321280872352244,3.5929101020307375
1323,16.504858705299945,-44.64811751237043,-16.32980157337517,7.808249257139507
1324,21.4692693564285,-46.47921753703047,-13.8171028633192,12.097873427612631
1325,26.127890849475794,-47.84479044640337,-10.462490408335894,16.292801142945855
1326,30.3486078074858,-48.70926478251644,-5.860498036860676,20.275704170761447
1327,34.089115279998964,-49.05560409254042,0.3924454750140587,23.96843620263419
1328,37.301904448872016,-48.801153851384875,8.606521579661404,27.274872818196563
1329,39.87873815861658,-47.71454921189319,18.98968911055476,30.066850198716768
1330,41.67604696946281,-45.39015370191526,31.665509566649735,32.22779279002936
1331,42.5939455196545,-41.408446323558344,46.698002076032395,33.70346825949269
1332,42.652667621066094,-35.51843988509115,64.12891232647274,34.546749579068035
1333,42.01573530074552,-27.556286812033026,84.0042710470437,34.933946068842765
1334,40.92235294823866,-17.25349936405439,106.33462619319525,35.09510132143504
1335,39.554961775096295,-4.231089579670282,131.01118008453358,35.184050942549945
1336,38.04670155431093,11.85198775834825,157.82652145129367,35.29174497441958
1337,36.62867046264509,31.254409346815102,186.57621051780342,35.5909381103478
1338,35.67838242231985,54.20782117644636,217.028241455063,36.38660936958125
1339,35.611294993284346,80.89126132742408,248.80673114450755,38.02349263059115
1340,36.713811520157144,111.3436872967498,281.3928268714627,40.73471799633759
1341,39.07822616642002,145.4181566300794,314.1914839054799,44.578474575846265
1342,42.63550789343331,182.82825875199077,346.5591515851919,49.46213967180161
1343,47.1812404662866,223.20040253856797,377.79122149179597,55.17697755661378
1344,52.4310799640434,266.0060452395778,407.18730236516507,61.46268640420216
1345,58.123860684490026,310.458604234933,434.2029518088959,68.09111170765557
1346,64.07846773346378,355.5458688740985,458.53020226167575,74.89417032954526
1347,70.1769078772133,400.20175416723384,480.0588456579521,81.72687510291283
1348,76.3196982543373,443.54384989321363,498.79450662432487,88.44130246146302
1349,82.37135931523675,485.0075167552174,514.818457136287,94.87710728172183
1350,88.14658927755421,524.2465018153827,528.2975206028455,100.8694057306767
1351,93.45483246073401,560.9954036224597,539.4941007526055,106.27975946039759
1352,98.15680596454325,595.0475851321961,548.7385283308712,111.01318966616047
1353,102.17747190232902,626.235061484647,556.395725897673,115.00543485722142
1354,105.45822273352839,654.3947468068607,562.8124069325972,118.20098098772837
1355,107.92205249841734,679.367861516691,568.246734521406,120.54460271175982
1356,109.49145556904374,700.9902617626025,572.8856451348295,121.98439000472239
1357,110.13117077310363,719.060705523472,576.8696099865185,122.485238678878
1358,109.85961076208373,733.3066698275087,580.2100870543933,122.04077008266427
1359,108.70148230028492,743.3516013351589,582.7135753597681,120.66206478796957
1360,106.65233421722202,748.696149968245,583.9514516464084,118.35535495284356
1361,103.69118027684749,748.7453240623332,583.1979087758409,115.11912386344711
1362,99.81618845090725,742.8430977900194,579.3726444153251,110.96446412097977
1363,95.06355806295976,730.3093489402879,571.0932695013738,105.93344879948734
1364,89.48140968545859,710.6307580236137,556.8574581908713,100.09822901891306
1365,83.10264251691021,683.659180381415,535.2760511214999,93.5377285957808
1366,75.95970284193073,649.5306577527501,505.23761928894595,86.32120470531395
1367,68.12379220321863,608.4650501748523,466.0059149175544,78.52275378252469
1368,59.716091834330264,560.6466737236051,417.32308990305734,70.23022437731967
1369,50.87940426230159,506.22085238033344,359.4851217212052,61.53528284498358
1370,41.743670487773215,445.3659551513668,293.3464279327612,52.52707146998965
1371,32.41099121486794,378.3200435073705,220.247519775118,43.28953064986941
1372,22.98008101128569,305.3696693924734,141.8682596798063,33.89804346480534
1373,13.565983405945373,226.86953921173046,59.9866977216164,24.418560046465906
1374,4.277037052219438,143.29752231025114,-23.770570443803845,14.91168171390652
1375,-4.810653152773766,55.32846818216251,-108.00528786406717,5.4361643391270835
1376,-13.648635123796504,-36.07888703430851,-191.52406458285571,-3.9477819077853744
1377,-22.18717385737823,-129.61675663645104,-273.3428434769598,-13.169528693377432
1378,-30.358362678074194,-223.6562203643649,-352.65121374613506,-22.142499320059933
1379,-38.090053032359684,-316.3763151732228,-428.7621947220573,-30.774301124972187
1380,-45.33808261067859,-405.9435401655244,-501.09300030113246,-38.98950604099312
1381,-52.101337150959424,-490.7355623682869,-569.1208019760112,-46.74555444857908
1382,-58.39745325257594,-569.5188688540931,-632.334029204798,-54.028179114916746
1383,-64.23326079533467,-641.3874927277383,-690.2133340236924,-60.836322392548
1384,-69.59762389033409,-705.6204822562532,-742.2397524599614,-67.17777029129869
1385,-74.49251662757402,-761.6993379582801,-787.9299326394483,-73.07785392498344
1386,-78.96601468774585,-809.3519985413775,-826.8821026172047,-78.58049900179437
1387,-83.08648917275121,-848.5340661818786,-858.8214299913193,-83.73857531823761
1388,-86.89621148280804,-879.3927207768104,-883.641405137843,-88.60591849958797
1389,-90.41333095664476,-902.2266955441031,-901.4304711539006,-93.23201585085337
1390,-93.66889149289672,-917.4517836361746,-912.459609426653,-97.65382893882081
1391,-96.71015529499523,-925.5598943167136,-917.1313012539431,-101.88567980279521
1392,-99.57399611463804,-927.0794978880931,-915.9306282318951,-105.91710507090778
1393,-102.2685288659661,-922.5668031545766,-909.4046907453081,-109.71893409139089
1394,-104.76590786249969,-912.6029588099095,-898.1538609380034,-113.25713205630629
1395,-107.0317154920612,-897.7547712302304,-882.8036808751074,-116.51479274065764
1396,-109.06047891510713,-878.5245883480287,-863.9647264183518,-119.50634037899398
1397,-110.86563694730609,-855.3335218085459,-842.2016515291225,-122.26501951292958
1398,-112.4634748182004,-830.3948579437268,-819.5069395415929,-124.84021660265435
1399,-113.8669180985587,-800.9565079815557,-793.8358377335729,-127.22551293460148
1400,-115.08969514783219,-766.3847044813577,-764.7413057680697,-129.39281340391747
1401,-116.16401022109223,-727.5455809990128,-732.9025900425434,-131.31342659177534
1402,-117.12081039307607,-686.269448601412,-699.7154598646948,-132.96676004935875
1403,-117.96142948475007,-644.8983143506907,-666.9256527636596,-134.3379442891611
1404,-118.66621433244178,-605.8819190476624,-636.3158520524742,-135.41484558037928
1405,-119.2264537852901,-571.4268185331449,-609.4569304854933,-136.19329244382382
1406,-119.6472244038397,-543.2140130175367,-587.5186874708231,-136.68600215482803
1407,-119.93312822808012,-522.1994592236549,-571.150696196599,-136.92761825544542
1408,-1.2973235972843251,-2.621504065235933,-3.913155820125482,-1.9741065904852504
1409,-2.929934069714586,-5.979453798490509,-8.326989708643993,-4.1907068799586185
1410,-5.289368778249553,-10.85242514151449,-14.512454181473121,-7.291844658821761
1411,-8.370283467667688,-17.271667362492927,-22.427996076729244,-11.225968729442442
1412,-12.122220549137628,-25.124713235282947,-31.86074128945935,-15.86920036553573
1413,-16.44812716227931,-34.16377657043418,-42.44300668744898,-21.041017907713297
1414,-21.183013860529012,-44.03737974780434,-53.69634066431542,-26.51596243279043
1415,-26.110841247647354,-54.34771415875354,-65.09728664262602,-32.050613289391165
1416,-31.029150676451344,-64.72375971761267,-76.16854553743795,-37.429376650880066
1417,-35.8205874517085,-74.89984265151915,-86.59445558350194,-42.52832148910236
1418,-40.49305432846365,-84.8130638330043,-96.35523696640836,-47.38750242385247
1419,-44.98775902278721,-94.30998244390071,-105.2933578962539,-51.977211131818734
1420,-49.215972690148206,-103.232037882252,-113.25526099140235,-56.249601949218864
1421,-53.08859750783638,-111.41542497310444,-120.0954113934599,-60.1439158671277
1422,-56.54946723934317,-118.70343027084546,-125.68275772370265,-63.6002143458844
1423,-59.56100808161433,-124.96244877094279,-129.92630555330766,-66.5664932659782
1424,-62.07861254830074,-130.09072283704117,-132.8013639619636,-69.00147974577426
1425,-64.05392952685892,-134.02000718011527,-134.35004794321534,-70.8753117243607
1426,-65.46345649293039,-136.72249393144463,-134.66292221664824,-72.1780499846006
1427,-66.33321390650562,-138.2221562494998,-133.8615820225416,-72.93445738755247
1428,-66.72148722086543,-138.59642011032705,-132.09103249874295,-73.1975489233117
1429,-66.68622845037697,-137.96143787713405,-129.51061011875504,-73.01822236075371
1430,-66.27630000417653,-136.45677996736046,-126.2768917083766,-72.4333029573266
1431,-65.55584041294975,-134.23469452542747,-122.52623213166088,-71.48390098252621
1432,-64.61286353287831,-131.44399432622046,-118.36581765187775,-70.2275169657514
1433,-63.51835338832253,-128.21197510384255,-113.8734926073295,-68.72451815758617
1434,-62.289907446855366,-124.63873863633677,-109.10146667754864,-67.0179237282431
1435,-60.89939961046636,-120.80577994403052,-104.08910221044646,-65.13007396783867
1436,-59.32150338805944,-116.77988999709548,-98.87782201416783,-63.07721847763642
1437,-57.56844936631581,-112.61330857647694,-93.51795578594417,-60.888807699440264
1438,-55.675922288487335,-108.34963207685357,-88.07189023335532,-58.610939417972084
1439,-53.66709098387915,-104.0308858011423,-82.60935733597543,-56.28240765680914
1440,-51.5368128862534,-99.70349149741459,-77.19918601449241,-53.91335533976752
1441,-49.28763886502927,-95.42022656009854,-71.90787887167576,-51.493846359468655
1442,-46.96555861242644,-91.23887790163293,-66.79660227135314,-49.01270658888796
1443,-44.64691572122054,-87.21744297526857,-61.91816691624493,-46.464957639614525
1444,-42.39516768889647,-83.40758549448341,-57.31890560534477,-43.851767929248204
1445,-40.23613988360457,-79.85336354269262,-53.03508479276904,-41.18038480297643
1446,-38.175564241691596,-76.59025465905543,-49.08727306860697,-38.469086044612794
1447,-36.222189407549635,-73.63772195578032,-45.479135458802304,-35.7540003840577
1448,-34.393861686585986,-70.99028345594623,-42.196351097197386,-33.07943827284714
1449,-32.69061476901231,-68.61956654870515,-39.20603087243586,-30.473535742348506
1450,-31.070557399258767,-66.48593291661521,-36.455889636627916,-27.941823389326824
1451,-29.477145909245188,-64.54738634441253,-33.88071045950036,-25.484108872175188
1452,-27.87518746392592,-62.759686800071016,-31.416748185370647,-23.1023250694494
1453,-26.251953633350652,-61.0741752084927,-29.008428288355642,-20.79262573898472
1454,-24.589643691302285,-59.44308240821871,-26.61474580867541,-18.539071091782
1455,-22.850612865822267,-57.82280698458221,-24.21842773445834,-16.315162997355063
1456,-20.98856422852428,-56.17081396124639,-21.822353436370882,-14.099657415334956
1457,-18.97822099666072,-54.44681721173052,-19.434367894779367,-11.899547007933418
1458,-16.836891675310227,-52.62170262670007,-17.0534200329545,-9.744441319494491
1459,-14.596669774138691,-50.68424023001843,-14.668149938923742,-7.655045674807934
1460,-12.273674116754913,-48.63588343473176,-12.263237926879363,-5.632510469333313
1461,-9.87373725573419,-46.479926327329025,-9.821090937507407,-3.6699970814928724
1462,-7.421158361114082,-44.21553600520351,-7.320822267241818,-1.7635081443021896
1463,-4.97819622309135,-41.8371940464685,-4.742029019056503,0.08123401337955272
1464,-2.6179453988698795,-39.337262382611236,-2.0753456057139124,1.8492224472047813
1465,-0.38495924298665163,-36.712942877860804,0.6626882004039426,3.5199189701465388
1466,1.7074997691787424,-33.97826328409376,3.4215704620988743,5.0691700137055005
1467,3.6405100984393535,-31.170140254868233,6.123339813647728,6.47370908017436
1468,5.369126044522367,-28.340883283643826,8.678003521797882,7.716371014252205
1469,6.8507480992953464,-25.54874439973078,11.000422896746265,8.791891524803981
1470,8.073714005429919,-22.851140596120956,13.020509710023337,9.710068419219569
1471,9.060062522214086,-20.293281970989785,14.689194837517544,10.48952723278165
1472,9.835770910057537,-17.895164133432473,15.98868105138766,11.152049812803456
1473,10.397265680649648,-15.650484225164506,16.936917245284125,11.718402323597326
1474,10.725459069286705,-13.535711283469254,17.581607859482332,12.201606934463053
1475,10.82809034907011,-11.511284786474404,17.9931348844116,12.602362414623359
1476,10.750070710689684,-9.522466793489507,18.254308894449963,12.905396364801675
1477,10.538280217111907,-7.507556238622017,18.444314113414386,13.084725512947383
1478,10.210746852096788,-5.411266051797289,18.619525117478055,13.118974328955101
1479,9.760531195503274,-3.2037069264558884,18.799353293907263,13.001471613437007
1480,9.195035942832972,-0.8845098094162857,18.96949431828322,12.747663864106753
